File Name:	PMMA_DE_6mm_60Kmin_4mg_R1.txt
Version: 8.3.7.3
Date:	06 Aug 2024
Operator:	KH
Test ID:	PMMA_DE_6mm_4mg_60K_R1
Sample ID:	PMMA_DE_6mm_4mg
Sample Mass (mg):	4.0200
Sample Cup Mass (mg):	182.3000
End Total Mass (mg):
Heating Rate (C/s):	1.0000
Combuster Temperature (C):	900.0
N2 Flow Rate (cc/min):	80.0
O2 Flow Rate (cc/min):	20.0
Calibration File:	Coeff.txt
T Correction Coefficients:	0.308738730	0.013615500	0.000000000
Time Shift (s):	10.0
Pre-Test Comments:
Post-Test Comments:
Baseline Flow:	99.875
Baseline O2:	20.432
Instrument ID:
@
Time (s)	Temperature (C)	N2 Flow (cc/min)	O2 Flow (cc/min)	Total Flow (cc/min)	Oxygen (%)	HRR (W/g)	Heating Rate (C/s)	Combustor Temp (C)
0.000	75.140	80.058	19.997	99.875	20.411	-9.838	0.036	900.380
0.500	75.100	80.058	19.998	99.874	20.391	-8.637	-0.039	900.371
1.000	75.080	80.057	19.998	99.880	20.370	-7.302	-0.060	900.362
1.500	75.085	80.057	19.997	99.900	20.349	-5.832	-0.015	900.376
2.000	75.093	80.054	19.999	99.956	20.328	-4.257	0.013	900.354
2.500	75.115	80.058	19.999	100.044	20.311	-2.945	0.030	900.390
3.000	75.146	80.057	19.999	100.153	20.297	-1.814	0.052	900.388
3.501	75.183	80.056	19.999	100.271	20.285	-0.784	0.068	900.417
4.000	75.188	80.055	19.997	100.382	20.278	-0.268	0.043	900.366
4.500	75.261	80.054	19.997	100.459	20.272	0.143	0.078	900.388
5.000	75.294	80.054	19.998	100.508	20.267	-0.046	0.106	900.382
5.500	75.348	80.055	19.998	100.543	20.259	-0.576	0.087	900.383
6.000	75.440	80.054	19.999	100.575	20.261	-2.576	0.146	900.369
6.500	75.522	80.057	19.998	100.605	20.259	-4.649	0.175	900.412
6.999	75.626	80.057	19.998	100.636	20.259	-6.826	0.186	900.364
7.499	75.664	80.055	19.999	100.668	20.258	-8.799	0.141	900.378
7.999	75.785	80.058	19.999	100.689	20.257	-10.233	0.159	900.375
8.499	75.936	80.057	19.998	100.703	20.255	-10.955	0.272	900.369
9.000	76.033	80.057	19.998	100.711	20.258	-11.318	0.248	900.355
9.500	76.132	80.055	19.997	100.710	20.254	-10.683	0.196	900.404
10.000	76.238	80.054	19.997	100.706	20.249	-9.974	0.206	900.357
10.500	76.387	80.054	19.997	100.699	20.240	-8.821	0.255	900.380
11.000	76.524	80.055	19.997	100.697	20.218	-6.759	0.285	900.377
11.500	76.673	80.053	19.995	100.697	20.188	-3.922	0.286	900.370
12.001	76.812	80.055	19.996	100.704	20.158	-1.041	0.288	900.357
12.500	76.996	80.055	19.997	100.750	20.128	1.777	0.323	900.403
13.000	77.186	80.053	19.997	100.851	20.111	3.671	0.374	900.355
13.500	77.403	80.058	19.998	101.000	20.096	5.229	0.408	900.366
14.000	77.597	80.055	19.996	101.177	20.090	6.223	0.411	900.356
14.499	77.855	80.055	19.997	101.353	20.085	7.024	0.451	900.340
15.000	78.132	80.056	19.996	101.483	20.086	7.287	0.534	900.365
15.500	78.402	80.054	19.996	101.556	20.092	7.157	0.547	900.353
16.000	78.658	80.055	19.997	101.575	20.095	7.208	0.526	900.308
16.500	78.960	80.056	19.996	101.557	20.102	7.092	0.558	900.332
17.000	79.348	80.056	19.997	101.527	20.112	6.714	0.690	900.355
17.500	79.699	80.056	19.997	101.504	20.116	6.678	0.739	900.310
18.000	80.055	80.057	19.996	101.475	20.127	6.149	0.706	900.360
18.500	80.392	80.058	19.996	101.450	20.133	5.982	0.693	900.339
19.000	80.767	80.056	19.997	101.417	20.143	5.507	0.712	900.316
19.500	81.156	80.056	19.997	101.380	20.149	5.293	0.763	900.336
20.000	81.554	80.055	19.997	101.336	20.158	4.797	0.787	900.350
20.500	81.974	80.054	19.997	101.303	20.163	4.673	0.819	900.333
21.000	82.365	80.052	19.997	101.269	20.171	4.317	0.811	900.363
21.500	82.760	80.054	19.998	101.240	20.172	4.557	0.785	900.325
22.000	83.227	80.055	19.999	101.215	20.179	4.346	0.861	900.355
22.500	83.648	80.055	19.998	101.195	20.184	4.158	0.888	900.346
23.000	84.104	80.057	19.998	101.171	20.189	4.077	0.877	900.320
23.500	84.545	80.054	19.998	101.146	20.196	3.767	0.897	900.352
24.000	84.974	80.055	19.998	101.117	20.198	3.766	0.869	900.353
24.500	85.460	80.057	19.998	101.094	20.201	3.657	0.916	900.348
25.000	85.891	80.057	19.998	101.071	20.206	3.462	0.918	900.322
25.500	86.344	80.056	19.997	101.048	20.210	3.322	0.884	900.303
25.999	86.828	80.056	19.997	101.029	20.209	3.623	0.938	900.344
26.499	87.338	80.054	19.996	101.014	20.216	3.289	0.994	900.329
27.000	87.804	80.057	19.997	100.998	20.220	3.187	0.975	900.324
27.500	88.296	80.053	19.998	100.983	20.225	3.010	0.956	900.312
28.001	88.778	80.054	19.996	100.964	20.225	3.142	0.974	900.335
28.500	89.267	80.054	19.998	100.939	20.231	2.788	0.972	900.323
29.000	89.760	80.053	19.997	100.921	20.233	2.724	0.983	900.297
29.500	90.225	80.057	19.997	100.900	20.234	2.746	0.958	900.321
30.000	90.748	80.057	19.998	100.882	20.239	2.520	0.988	900.335
30.500	91.250	80.056	19.998	100.866	20.242	2.374	1.026	900.301
31.000	91.747	80.056	19.997	100.853	20.242	2.458	0.999	900.304
31.500	92.264	80.053	19.997	100.841	20.244	2.436	1.014	900.268
32.000	92.759	80.056	19.997	100.832	20.251	2.068	1.012	900.286
32.501	93.293	80.056	19.997	100.821	20.250	2.236	1.028	900.316
33.001	93.777	80.054	19.998	100.809	20.250	2.221	1.018	900.273
33.500	94.304	80.056	19.996	100.794	20.251	2.158	1.012	900.329
34.000	94.827	80.057	19.998	100.777	20.253	2.030	1.051	900.307
34.500	95.295	80.055	19.998	100.764	20.251	2.325	0.991	900.266
35.000	95.860	80.057	19.996	100.749	20.256	1.982	1.032	900.271
35.501	96.360	80.057	19.996	100.738	20.258	1.974	1.065	900.285
36.001	96.901	80.057	19.997	100.737	20.261	1.737	1.041	900.308
36.500	97.409	80.056	19.996	100.731	20.264	1.570	1.048	900.313
37.000	97.929	80.054	19.997	100.722	20.263	1.716	1.028	900.298
37.500	98.445	80.057	19.997	100.713	20.265	1.547	1.037	900.290
38.000	98.970	80.057	19.998	100.706	20.266	1.518	1.042	900.291
38.500	99.507	80.054	19.997	100.694	20.266	1.508	1.062	900.293
39.000	100.030	80.055	19.997	100.687	20.270	1.314	1.060	900.275
39.500	100.529	80.054	19.997	100.680	20.271	1.362	1.022	900.280
40.000	101.080	80.052	19.997	100.676	20.270	1.555	1.050	900.304
40.500	101.619	80.055	19.997	100.673	20.272	1.474	1.089	900.254
41.001	102.116	80.056	19.997	100.672	20.272	1.585	1.036	900.268
41.500	102.641	80.055	19.997	100.670	20.273	1.591	1.022	900.243
42.000	103.186	80.054	19.997	100.665	20.273	1.755	1.069	900.266
42.500	103.699	80.055	19.997	100.659	20.273	1.804	1.058	900.279
43.001	104.236	80.056	19.997	100.649	20.274	1.683	1.049	900.269
43.501	104.758	80.055	19.996	100.647	20.276	1.541	1.058	900.259
44.001	105.301	80.054	19.997	100.641	20.276	1.646	1.065	900.281
44.501	105.819	80.056	19.997	100.643	20.274	1.853	1.062	900.253
45.000	106.349	80.054	19.997	100.644	20.277	1.609	1.049	900.244
45.500	106.894	80.052	19.998	100.645	20.280	1.380	1.076	900.256
46.000	107.403	80.055	19.995	100.636	20.278	1.588	1.054	900.239
46.500	107.982	80.056	19.997	100.630	20.277	1.749	1.087	900.238
47.000	108.514	80.057	19.997	100.621	20.281	1.458	1.112	900.261
47.500	109.054	80.055	19.997	100.612	20.283	1.323	1.072	900.235
48.000	109.561	80.054	19.996	100.604	20.281	1.451	1.047	900.237
48.500	110.098	80.055	19.995	100.603	20.282	1.329	1.044	900.245
49.000	110.655	80.054	19.995	100.594	20.281	1.412	1.094	900.217
49.500	111.173	80.056	19.998	100.585	20.286	1.090	1.075	900.229
50.001	111.716	80.058	19.996	100.585	20.283	1.318	1.060	900.223
50.501	112.266	80.058	19.996	100.584	20.288	0.875	1.094	900.237
51.000	112.782	80.057	19.998	100.577	20.285	1.164	1.067	900.229
51.500	113.312	80.060	19.997	100.580	20.286	1.256	1.046	900.205
52.000	113.884	80.061	19.996	100.579	20.291	1.049	1.102	900.266
52.500	114.431	80.058	19.997	100.575	20.291	1.069	1.120	900.242
53.000	114.909	80.057	19.996	100.572	20.293	0.937	1.025	900.212
53.500	115.465	80.056	19.997	100.573	20.294	0.852	1.033	900.254
54.000	115.969	80.059	19.996	100.567	20.289	1.370	1.060	900.236
54.500	116.537	80.059	19.996	100.564	20.290	1.287	1.071	900.223
55.000	117.029	80.059	19.997	100.563	20.291	1.129	1.060	900.218
55.500	117.601	80.061	19.997	100.565	20.289	1.197	1.064	900.219
56.000	118.135	80.059	19.996	100.564	20.292	0.944	1.107	900.239
56.500	118.672	80.057	19.997	100.569	20.293	0.935	1.071	900.218
57.000	119.208	80.056	19.997	100.570	20.294	0.815	1.072	900.223
57.500	119.769	80.058	19.998	100.565	20.297	0.612	1.096	900.219
58.001	120.295	80.055	19.998	100.561	20.295	0.791	1.087	900.235
58.500	120.805	80.056	19.998	100.559	20.296	0.819	1.037	900.245
59.000	121.361	80.057	19.998	100.549	20.297	0.730	1.066	900.246
59.500	121.893	80.059	19.997	100.541	20.298	0.701	1.088	900.219
60.000	122.427	80.059	19.998	100.537	20.299	0.661	1.066	900.221
60.500	122.944	80.059	19.998	100.533	20.295	0.889	1.050	900.198
61.001	123.470	80.056	19.998	100.531	20.296	0.783	1.042	900.227
61.501	124.035	80.055	19.998	100.529	20.297	0.685	1.092	900.250
62.000	124.550	80.057	19.997	100.533	20.295	0.799	1.081	900.255
62.500	125.091	80.058	19.997	100.540	20.295	0.829	1.056	900.189
63.000	125.618	80.057	19.997	100.541	20.296	0.792	1.068	900.211
63.500	126.148	80.056	19.999	100.538	20.295	0.876	1.057	900.251
64.000	126.652	80.054	19.998	100.541	20.292	1.087	1.034	900.184
64.500	127.197	80.056	19.997	100.543	20.292	1.176	1.049	900.205
65.000	127.691	80.058	19.997	100.537	20.291	1.385	1.039	900.201
65.500	128.255	80.056	19.996	100.530	20.290	1.438	1.058	900.198
66.000	128.768	80.057	19.998	100.525	20.289	1.537	1.077	900.248
66.500	129.294	80.057	19.997	100.529	20.292	1.423	1.038	900.230
67.001	129.823	80.053	19.996	100.527	20.291	1.645	1.054	900.238
67.501	130.350	80.054	19.997	100.526	20.292	1.560	1.057	900.208
68.000	130.899	80.056	19.998	100.532	20.290	1.746	1.077	900.236
68.500	131.415	80.055	19.997	100.536	20.291	1.621	1.065	900.234
69.000	131.912	80.056	19.998	100.532	20.287	1.947	1.012	900.223
69.500	132.483	80.055	19.998	100.536	20.288	1.858	1.067	900.252
70.000	132.984	80.056	19.998	100.536	20.287	1.914	1.073	900.221
70.500	133.550	80.058	19.998	100.530	20.288	1.725	1.067	900.225
71.000	134.059	80.058	19.996	100.530	20.284	2.078	1.075	900.247
71.501	134.580	80.058	19.997	100.531	20.285	2.140	1.030	900.243
72.001	135.117	80.057	19.997	100.520	20.284	2.202	1.058	900.206
72.500	135.634	80.058	19.996	100.516	20.283	2.292	1.054	900.233
73.000	136.169	80.058	19.996	100.517	20.285	2.177	1.052	900.232
73.501	136.680	80.057	19.997	100.512	20.281	2.377	1.045	900.223
74.001	137.206	80.055	19.996	100.505	20.279	2.552	1.037	900.227
74.500	137.733	80.056	19.997	100.502	20.278	2.564	1.055	900.212
75.000	138.254	80.055	19.998	100.499	20.278	2.545	1.048	900.218
75.501	138.767	80.057	19.996	100.496	20.279	2.347	1.033	900.203
76.001	139.315	80.059	19.997	100.499	20.278	2.551	1.060	900.242
76.501	139.848	80.056	19.996	100.500	20.279	2.616	1.083	900.227
77.000	140.331	80.055	19.997	100.503	20.279	2.608	1.017	900.208
77.501	140.904	80.056	19.998	100.507	20.276	2.903	1.055	900.212
78.001	141.395	80.056	19.997	100.508	20.276	3.063	1.064	900.229
78.500	141.902	80.057	19.997	100.501	20.275	3.175	0.999	900.183
79.000	142.439	80.056	19.998	100.496	20.275	3.119	1.044	900.194
79.500	142.933	80.057	19.998	100.499	20.271	3.404	1.030	900.190
80.000	143.489	80.055	19.999	100.493	20.271	3.424	1.050	900.186
80.501	144.023	80.056	19.999	100.496	20.266	3.830	1.090	900.199
81.001	144.516	80.058	19.999	100.502	20.267	3.746	1.027	900.194
81.501	145.056	80.056	19.997	100.506	20.264	4.026	1.034	900.179
82.000	145.524	80.056	19.997	100.507	20.265	4.063	1.008	900.187
82.501	146.125	80.057	19.997	100.514	20.261	4.400	1.068	900.188
83.001	146.614	80.055	19.998	100.511	20.262	4.248	1.090	900.189
83.500	147.106	80.055	19.997	100.500	20.263	4.172	0.982	900.176
84.000	147.647	80.057	19.998	100.498	20.262	4.251	1.033	900.171
84.500	148.146	80.056	19.997	100.495	20.261	4.354	1.039	900.196
85.001	148.689	80.055	19.997	100.487	20.259	4.486	1.041	900.217
85.501	149.215	80.056	19.999	100.479	20.260	4.390	1.069	900.216
86.001	149.718	80.055	20.000	100.479	20.257	4.680	1.029	900.192
86.501	150.240	80.057	19.999	100.483	20.256	4.736	1.024	900.196
87.001	150.754	80.055	19.998	100.483	20.255	4.772	1.037	900.215
87.500	151.269	80.056	19.997	100.483	20.253	4.949	1.030	900.211
88.000	151.787	80.057	19.997	100.483	20.253	4.990	1.033	900.159
88.501	152.284	80.056	19.998	100.483	20.252	5.168	1.013	900.216
89.002	152.845	80.058	19.997	100.477	20.252	5.259	1.057	900.208
89.502	153.333	80.060	19.998	100.469	20.252	5.206	1.050	900.205
90.002	153.838	80.058	19.998	100.469	20.252	5.247	0.994	900.210
90.501	154.376	80.057	19.997	100.476	20.253	5.017	1.044	900.214
91.001	154.864	80.054	19.998	100.476	20.249	5.415	1.025	900.189
91.501	155.390	80.054	19.999	100.473	20.247	5.531	1.013	900.204
92.001	155.913	80.056	19.999	100.472	20.245	5.738	1.050	900.195
92.501	156.420	80.056	19.997	100.474	20.241	6.102	1.030	900.189
93.001	156.930	80.055	19.996	100.467	20.240	6.292	1.016	900.184
93.502	157.435	80.058	19.996	100.470	20.239	6.454	1.015	900.171
94.001	157.986	80.057	19.997	100.473	20.235	6.700	1.056	900.189
94.502	158.505	80.060	19.997	100.477	20.238	6.486	1.070	900.166
95.001	158.979	80.060	19.998	100.470	20.234	6.705	0.994	900.175
95.501	159.492	80.059	19.999	100.469	20.234	6.741	0.987	900.183
96.001	160.013	80.057	19.998	100.462	20.230	7.023	1.034	900.180
96.501	160.519	80.055	19.997	100.458	20.227	7.232	1.028	900.172
97.001	161.042	80.057	20.000	100.457	20.227	7.265	1.029	900.194
97.501	161.584	80.057	20.000	100.463	20.223	7.540	1.065	900.161
98.001	162.060	80.055	19.998	100.468	20.223	7.549	1.018	900.183
98.501	162.576	80.056	19.997	100.468	20.220	7.783	0.992	900.169
99.001	163.106	80.058	19.997	100.466	20.218	7.906	1.046	900.185
99.501	163.603	80.056	19.999	100.462	20.211	8.402	1.027	900.161
100.001	164.127	80.056	19.999	100.453	20.207	8.726	1.020	900.190
100.501	164.657	80.060	19.997	100.444	20.206	8.741	1.054	900.163
101.001	165.157	80.056	19.997	100.446	20.202	9.079	1.030	900.199
101.501	165.662	80.059	19.998	100.450	20.199	9.304	1.005	900.162
102.001	166.201	80.057	19.997	100.450	20.197	9.530	1.044	900.191
102.501	166.716	80.057	19.999	100.456	20.193	9.870	1.054	900.183
103.001	167.220	80.057	19.998	100.455	20.191	10.114	1.020	900.178
103.501	167.721	80.054	19.997	100.452	20.184	10.600	1.005	900.153
104.001	168.199	80.058	19.998	100.452	20.179	10.977	0.979	900.170
104.501	168.742	80.058	19.997	100.454	20.176	11.261	1.021	900.195
105.001	169.224	80.055	19.998	100.453	20.169	11.727	1.025	900.173
105.501	169.738	80.055	19.998	100.455	20.167	11.878	0.996	900.160
106.001	170.242	80.055	19.997	100.457	20.161	12.395	1.018	900.140
106.501	170.758	80.054	19.997	100.457	20.156	12.868	1.021	900.170
107.001	171.290	80.056	19.997	100.459	20.151	13.324	1.048	900.192
107.501	171.799	80.054	19.996	100.460	20.148	13.567	1.040	900.177
108.001	172.286	80.055	19.998	100.462	20.144	13.946	0.996	900.147
108.501	172.811	80.054	19.998	100.461	20.133	14.763	1.013	900.150
109.001	173.296	80.055	19.998	100.459	20.132	14.837	1.009	900.134
109.501	173.856	80.057	19.998	100.452	20.125	15.334	1.045	900.152
110.001	174.335	80.056	19.998	100.451	20.121	15.686	1.040	900.163
110.501	174.842	80.058	19.999	100.447	20.113	16.259	0.986	900.162
111.001	175.379	80.059	19.998	100.453	20.106	16.851	1.043	900.168
111.501	175.891	80.058	19.997	100.451	20.100	17.396	1.049	900.167
112.002	176.417	80.057	19.998	100.449	20.097	17.717	1.038	900.179
112.502	176.910	80.056	19.998	100.451	20.091	18.224	1.018	900.147
113.002	177.424	80.055	19.997	100.453	20.085	18.766	1.008	900.189
113.501	177.923	80.056	19.997	100.444	20.080	19.127	1.013	900.152
114.002	178.437	80.056	19.999	100.443	20.073	19.807	1.014	900.186
114.502	178.950	80.055	19.998	100.443	20.069	20.140	1.028	900.167
115.001	179.423	80.056	19.996	100.434	20.062	20.656	0.986	900.166
115.501	179.945	80.057	19.997	100.432	20.055	21.260	0.995	900.157
116.001	180.445	80.055	19.996	100.433	20.049	21.740	1.023	900.183
116.501	180.994	80.057	19.998	100.436	20.045	22.043	1.049	900.164
117.001	181.503	80.057	19.997	100.439	20.042	22.297	1.058	900.149
117.501	182.025	80.056	19.996	100.441	20.035	22.805	1.031	900.151
118.001	182.530	80.055	19.998	100.436	20.033	23.048	1.026	900.163
118.501	183.022	80.056	19.997	100.433	20.025	23.658	0.997	900.165
119.002	183.573	80.058	19.997	100.424	20.021	23.921	1.043	900.189
119.501	184.061	80.055	19.998	100.422	20.018	24.217	1.040	900.163
120.001	184.585	80.055	19.997	100.417	20.016	24.368	1.013	900.149
120.501	185.091	80.058	19.997	100.416	20.007	25.003	1.030	900.178
121.001	185.557	80.054	19.996	100.413	20.006	25.085	0.972	900.147
121.501	186.053	80.055	19.997	100.408	20.004	25.358	0.962	900.145
122.001	186.594	80.057	19.998	100.403	19.998	25.889	1.037	900.178
122.501	187.129	80.057	19.996	100.403	19.995	26.118	1.077	900.168
123.001	187.611	80.056	19.997	100.400	19.997	26.019	1.016	900.184
123.501	188.100	80.054	19.997	100.398	19.990	26.548	0.970	900.176
124.001	188.629	80.055	19.997	100.402	19.983	27.060	1.018	900.141
124.501	189.150	80.057	19.997	100.402	19.985	26.959	1.049	900.144
125.002	189.647	80.056	19.998	100.399	19.981	27.237	1.018	900.178
125.501	190.186	80.057	19.997	100.396	19.984	27.049	1.036	900.174
126.001	190.667	80.056	19.997	100.398	19.981	27.316	1.020	900.177
126.501	191.180	80.055	19.996	100.395	19.983	27.139	0.994	900.138
127.002	191.678	80.058	19.997	100.395	19.982	27.316	1.010	900.143
127.502	192.206	80.058	19.998	100.397	19.979	27.533	1.026	900.141
128.002	192.676	80.057	19.997	100.400	19.979	27.620	0.998	900.156
128.502	193.220	80.056	19.997	100.394	19.981	27.494	1.014	900.163
129.002	193.716	80.055	19.997	100.392	19.980	27.585	1.040	900.145
129.501	194.216	80.055	19.996	100.386	19.984	27.299	0.997	900.155
130.001	194.731	80.057	19.996	100.382	19.983	27.419	1.015	900.153
130.501	195.246	80.056	19.998	100.381	19.986	27.292	1.030	900.143
131.001	195.739	80.057	19.997	100.382	19.987	27.252	1.008	900.165
131.501	196.257	80.055	19.997	100.383	19.992	26.890	1.010	900.149
132.001	196.782	80.056	19.997	100.385	19.993	26.823	1.042	900.157
132.502	197.280	80.057	19.997	100.383	20.000	26.359	1.023	900.144
133.001	197.801	80.057	19.998	100.379	20.003	26.093	1.019	900.157
133.501	198.298	80.058	19.997	100.377	20.009	25.650	1.018	900.180
134.001	198.799	80.058	19.997	100.376	20.012	25.375	0.998	900.148
134.501	199.324	80.056	19.998	100.372	20.015	25.133	1.025	900.141
135.002	199.795	80.057	19.997	100.371	20.025	24.375	0.996	900.170
135.502	200.314	80.059	19.998	100.369	20.029	24.016	0.991	900.166
136.001	200.866	80.057	19.997	100.365	20.029	23.969	1.070	900.166
136.502	201.379	80.056	19.998	100.360	20.040	22.995	1.064	900.132
137.002	201.877	80.058	19.997	100.362	20.044	22.607	1.012	900.129
137.502	202.370	80.055	19.997	100.355	20.054	21.907	0.991	900.154
138.002	202.899	80.060	19.997	100.352	20.058	21.433	1.023	900.131
138.501	203.382	80.060	19.997	100.350	20.068	20.598	1.013	900.113
139.001	203.883	80.059	19.997	100.346	20.073	20.234	0.983	900.119
139.502	204.398	80.057	19.996	100.341	20.076	20.083	1.016	900.145
140.002	204.869	80.056	19.997	100.344	20.088	19.227	0.987	900.136
140.501	205.392	80.056	19.996	100.344	20.096	18.517	0.994	900.123
141.001	205.928	80.056	19.996	100.343	20.103	17.961	1.058	900.121
141.502	206.424	80.054	19.997	100.346	20.109	17.428	1.032	900.110
142.001	206.941	80.053	19.996	100.350	20.120	16.556	1.013	900.136
142.502	207.474	80.055	19.997	100.347	20.125	16.086	1.050	900.152
143.002	207.960	80.054	19.997	100.349	20.132	15.454	1.020	900.144
143.501	208.437	80.058	19.997	100.355	20.139	14.896	0.963	900.114
144.001	208.983	80.058	19.997	100.363	20.144	14.429	1.023	900.121
144.501	209.475	80.056	19.997	100.368	20.151	13.878	1.038	900.166
145.001	209.996	80.055	19.997	100.371	20.161	13.066	1.013	900.133
145.501	210.526	80.054	19.998	100.376	20.164	12.802	1.052	900.143
146.001	211.012	80.056	19.998	100.378	20.174	11.977	1.017	900.142
146.501	211.527	80.055	19.996	100.375	20.181	11.376	1.002	900.126
147.001	212.011	80.055	19.998	100.370	20.188	10.864	0.999	900.134
147.501	212.538	80.058	19.998	100.372	20.188	10.900	1.010	900.119
148.001	213.066	80.057	19.998	100.372	20.193	10.429	1.055	900.145
148.501	213.560	80.055	19.997	100.372	20.199	9.999	1.023	900.114
149.001	214.044	80.057	19.997	100.379	20.203	9.712	0.978	900.146
149.501	214.550	80.059	19.997	100.388	20.209	9.249	0.990	900.161
150.001	215.056	80.057	19.997	100.395	20.215	8.726	1.012	900.121
150.502	215.585	80.056	19.996	100.396	20.218	8.583	1.034	900.140
151.002	216.057	80.056	19.998	100.399	20.223	8.177	1.001	900.110
151.502	216.593	80.059	19.997	100.400	20.225	7.964	1.008	900.137
152.002	217.102	80.057	19.997	100.400	20.226	7.850	1.044	900.146
152.502	217.616	80.055	19.999	100.405	20.231	7.441	1.024	900.133
153.002	218.127	80.055	19.998	100.409	20.232	7.352	1.025	900.147
153.502	218.613	80.056	19.997	100.410	20.230	7.498	0.998	900.118
154.001	219.123	80.057	19.997	100.412	20.238	6.896	0.996	900.146
154.502	219.621	80.059	19.997	100.411	20.242	6.703	1.007	900.128
155.002	220.128	80.059	19.998	100.411	20.244	6.624	1.006	900.114
155.502	220.684	80.058	19.998	100.415	20.245	6.581	1.063	900.121
156.001	221.191	80.055	19.996	100.412	20.244	6.624	1.063	900.148
156.502	221.632	80.055	19.997	100.412	20.245	6.605	0.948	900.113
157.001	222.155	80.056	19.998	100.415	20.245	6.596	0.964	900.110
157.501	222.651	80.057	19.998	100.414	20.250	6.223	1.020	900.107
158.001	223.147	80.057	19.998	100.409	20.250	6.241	0.991	900.123
158.502	223.685	80.057	19.999	100.413	20.248	6.457	1.033	900.092
159.001	224.158	80.057	19.998	100.416	20.253	6.110	1.012	900.114
159.501	224.729	80.058	19.999	100.418	20.250	6.380	1.045	900.082
160.001	225.179	80.059	19.998	100.418	20.252	6.352	1.021	900.103
160.501	225.698	80.056	19.998	100.423	20.251	6.498	0.969	900.107
161.001	226.200	80.056	19.999	100.422	20.251	6.439	1.021	900.090
161.502	226.691	80.055	19.997	100.417	20.251	6.445	0.992	900.145
162.002	227.211	80.057	19.998	100.410	20.255	6.184	1.011	900.097
162.501	227.709	80.059	19.999	100.405	20.253	6.298	1.019	900.084
163.002	228.229	80.058	19.997	100.401	20.255	6.145	1.017	900.114
163.502	228.754	80.056	19.999	100.402	20.254	6.289	1.045	900.112
164.002	229.230	80.057	20.000	100.400	20.255	6.253	1.001	900.123
164.501	229.734	80.056	19.999	100.402	20.261	5.856	0.981	900.123
165.001	230.283	80.059	19.999	100.406	20.257	6.244	1.052	900.105
165.502	230.759	80.058	19.999	100.400	20.259	6.074	1.024	900.158
166.002	231.245	80.055	19.999	100.396	20.260	6.054	0.963	900.110
166.502	231.752	80.053	20.000	100.397	20.259	6.047	0.993	900.102
167.002	232.267	80.055	19.999	100.388	20.258	6.071	1.022	900.122
167.502	232.724	80.053	19.998	100.381	20.258	6.161	0.973	900.107
168.001	233.255	80.056	19.999	100.382	20.257	6.293	0.988	900.085
168.502	233.752	80.053	19.999	100.379	20.259	6.122	1.028	900.092
169.002	234.290	80.054	19.999	100.378	20.259	6.223	1.035	900.091
169.502	234.769	80.054	20.001	100.384	20.258	6.348	1.017	900.105
170.002	235.267	80.052	19.999	100.385	20.256	6.587	0.977	900.094
170.502	235.772	80.055	20.000	100.384	20.256	6.663	1.004	900.095
171.001	236.294	80.058	19.999	100.376	20.256	6.689	1.027	900.123
171.502	236.779	80.058	19.999	100.368	20.258	6.546	1.006	900.126
172.002	237.265	80.058	19.999	100.365	20.260	6.361	0.971	900.136
172.502	237.790	80.057	19.998	100.363	20.260	6.393	1.011	900.121
173.002	238.286	80.058	19.998	100.361	20.259	6.407	1.021	900.109
173.501	238.800	80.060	19.999	100.367	20.260	6.342	1.011	900.109
174.001	239.289	80.056	19.999	100.367	20.262	6.213	1.004	900.126
174.501	239.828	80.057	20.000	100.365	20.264	6.114	1.027	900.095
175.002	240.334	80.058	20.001	100.365	20.262	6.256	1.044	900.115
175.502	240.826	80.056	20.000	100.360	20.264	6.085	0.998	900.110
176.002	241.326	80.059	20.000	100.357	20.263	6.151	0.992	900.129
176.502	241.835	80.058	19.999	100.355	20.266	5.956	1.009	900.132
177.002	242.320	80.056	19.998	100.346	20.265	6.026	0.995	900.090
177.502	242.815	80.055	19.998	100.340	20.266	6.001	0.980	900.085
178.002	243.354	80.055	19.999	100.339	20.266	6.055	1.033	900.091
178.502	243.824	80.056	19.999	100.336	20.269	5.773	1.008	900.124
179.002	244.364	80.055	20.000	100.338	20.268	5.861	1.010	900.140
179.502	244.828	80.054	19.999	100.339	20.270	5.648	1.003	900.084
180.002	245.343	80.055	19.999	100.341	20.270	5.610	0.979	900.091
180.502	245.836	80.054	19.999	100.343	20.271	5.502	1.008	900.075
181.003	246.342	80.052	19.999	100.340	20.270	5.504	0.999	900.097
181.502	246.852	80.054	19.999	100.337	20.268	5.702	1.017	900.096
182.002	247.367	80.053	19.998	100.337	20.273	5.394	1.025	900.105
182.502	247.838	80.054	19.998	100.337	20.273	5.378	0.986	900.082
183.002	248.371	80.053	19.999	100.336	20.274	5.296	1.004	900.091
183.503	248.851	80.054	19.999	100.339	20.277	5.022	1.013	900.079
184.002	249.370	80.056	19.998	100.338	20.274	5.271	1.001	900.104
184.502	249.899	80.056	19.999	100.335	20.274	5.301	1.049	900.093
185.002	250.390	80.054	19.999	100.334	20.278	5.082	1.019	900.088
185.502	250.885	80.055	19.998	100.329	20.276	5.215	0.984	900.118
186.003	251.385	80.056	19.999	100.329	20.279	4.952	0.995	900.081
186.503	251.881	80.056	19.999	100.334	20.276	5.187	0.997	900.082
187.002	252.396	80.055	19.999	100.335	20.276	5.153	1.012	900.106
187.502	252.881	80.056	19.998	100.339	20.279	4.795	1.000	900.108
188.002	253.415	80.054	19.997	100.344	20.281	4.654	1.018	900.087
188.502	253.928	80.055	19.997	100.342	20.282	4.642	1.048	900.107
189.002	254.399	80.052	19.997	100.339	20.282	4.674	0.985	900.118
189.502	254.921	80.054	19.997	100.341	20.280	4.795	0.992	900.144
190.002	255.409	80.053	19.997	100.339	20.281	4.787	1.009	900.101
190.502	255.927	80.054	19.999	100.340	20.285	4.446	1.007	900.098
191.002	256.423	80.057	19.998	100.340	20.285	4.465	1.014	900.128
191.502	256.943	80.053	19.999	100.342	20.286	4.383	1.015	900.124
192.002	257.430	80.054	19.999	100.337	20.282	4.712	1.008	900.099
192.502	257.907	80.055	19.999	100.334	20.283	4.671	0.964	900.094
193.002	258.429	80.055	19.998	100.335	20.284	4.543	0.999	900.069
193.502	258.934	80.056	19.998	100.336	20.285	4.558	1.028	900.093
194.002	259.442	80.056	19.999	100.337	20.282	4.797	1.012	900.108
194.502	259.965	80.056	20.000	100.342	20.286	4.539	1.030	900.131
195.003	260.453	80.056	19.998	100.349	20.290	4.203	1.012	900.067
195.502	260.957	80.054	19.999	100.347	20.285	4.615	0.993	900.099
196.002	261.439	80.055	19.998	100.341	20.284	4.609	0.986	900.085
196.502	261.975	80.057	19.998	100.340	20.282	4.737	1.017	900.080
197.002	262.459	80.054	19.999	100.340	20.285	4.465	1.020	900.071
197.502	262.950	80.057	20.000	100.335	20.284	4.534	0.975	900.096
198.002	263.479	80.056	19.999	100.338	20.281	4.769	1.020	900.096
198.502	263.937	80.057	19.999	100.343	20.282	4.719	0.986	900.118
199.003	264.458	80.056	19.999	100.340	20.282	4.729	0.979	900.113
199.503	264.945	80.056	19.998	100.336	20.283	4.792	1.009	900.111
200.002	265.460	80.054	19.999	100.336	20.280	5.020	1.003	900.104
200.502	265.957	80.056	19.998	100.333	20.277	5.207	1.012	900.072
201.002	266.452	80.053	19.998	100.330	20.279	5.105	0.991	900.113
201.502	266.968	80.055	19.999	100.330	20.275	5.393	1.010	900.102
202.002	267.483	80.056	19.998	100.331	20.274	5.481	1.032	900.102
202.502	267.964	80.055	19.999	100.330	20.273	5.545	0.996	900.143
203.003	268.440	80.057	20.000	100.330	20.273	5.656	0.956	900.108
203.503	268.972	80.060	19.999	100.332	20.270	5.837	1.009	900.123
204.003	269.492	80.058	19.999	100.338	20.268	5.893	1.052	900.113
204.503	269.950	80.056	19.998	100.341	20.268	5.952	0.978	900.097
205.002	270.451	80.055	19.998	100.340	20.266	6.051	0.960	900.068
205.502	270.949	80.055	19.999	100.337	20.265	6.144	0.998	900.082
206.003	271.456	80.057	19.998	100.336	20.262	6.430	1.004	900.081
206.503	271.953	80.057	19.998	100.330	20.263	6.364	1.006	900.113
207.002	272.455	80.058	19.998	100.325	20.259	6.796	1.000	900.102
207.502	272.934	80.058	19.997	100.327	20.256	7.022	0.980	900.096
208.002	273.473	80.055	19.996	100.330	20.256	6.998	1.018	900.080
208.502	273.971	80.057	19.998	100.327	20.253	7.284	1.037	900.075
209.002	274.460	80.057	19.998	100.326	20.255	7.158	0.987	900.144
209.502	274.969	80.057	19.998	100.327	20.250	7.539	0.998	900.076
210.002	275.500	80.054	19.998	100.323	20.251	7.412	1.041	900.109
210.502	275.965	80.055	19.999	100.319	20.248	7.694	0.996	900.108
211.002	276.484	80.058	19.999	100.323	20.243	8.086	0.984	900.091
211.502	276.962	80.057	19.999	100.328	20.239	8.282	0.997	900.103
212.003	277.476	80.053	19.999	100.327	20.235	8.694	0.992	900.099
212.503	277.966	80.056	19.998	100.329	20.232	8.839	1.004	900.088
213.002	278.472	80.054	19.997	100.330	20.224	9.374	0.996	900.115
213.502	278.969	80.053	19.997	100.324	20.223	9.478	1.004	900.100
214.002	279.502	80.056	19.999	100.315	20.221	9.642	1.030	900.083
214.502	279.987	80.055	19.998	100.315	20.217	9.953	1.018	900.105
215.002	280.469	80.053	19.999	100.316	20.213	10.271	0.967	900.117
215.502	281.006	80.053	19.998	100.317	20.210	10.539	1.019	900.103
216.003	281.472	80.053	19.998	100.315	20.203	11.114	1.002	900.102
216.503	281.978	80.052	19.998	100.315	20.198	11.580	0.972	900.107
217.002	282.515	80.053	19.998	100.312	20.194	11.901	1.044	900.101
217.502	283.012	80.051	19.997	100.310	20.189	12.230	1.034	900.093
218.002	283.473	80.053	19.997	100.310	20.186	12.417	0.957	900.073
218.503	283.983	80.053	19.998	100.317	20.181	12.726	0.971	900.084
219.003	284.466	80.054	19.997	100.318	20.173	13.411	0.993	900.096
219.502	284.987	80.056	19.999	100.316	20.166	13.920	1.004	900.088
220.002	285.501	80.055	19.999	100.315	20.165	14.060	1.035	900.100
220.502	285.992	80.055	19.998	100.321	20.159	14.564	1.005	900.090
221.002	286.508	80.052	19.998	100.322	20.153	14.918	1.007	900.079
221.503	287.006	80.053	19.998	100.321	20.148	15.323	1.014	900.091
222.002	287.514	80.054	19.998	100.326	20.142	15.772	1.007	900.113
222.502	287.999	80.056	19.998	100.321	20.138	16.130	0.993	900.102
223.002	288.506	80.055	19.997	100.311	20.131	16.628	0.992	900.083
223.502	289.003	80.055	19.999	100.308	20.125	17.115	1.004	900.108
224.002	289.520	80.055	19.998	100.308	20.119	17.602	1.014	900.120
224.502	290.002	80.054	19.998	100.308	20.113	18.121	0.999	900.129
225.002	290.496	80.057	19.999	100.316	20.105	18.736	0.976	900.114
225.502	291.036	80.057	19.999	100.319	20.099	19.185	1.033	900.092
226.003	291.484	80.055	19.999	100.319	20.092	19.775	0.988	900.118
226.503	291.993	80.053	19.999	100.319	20.086	20.270	0.958	900.083
227.002	292.510	80.055	19.996	100.316	20.075	21.185	1.026	900.125
227.503	292.978	80.056	19.998	100.312	20.073	21.443	0.984	900.105
228.003	293.459	80.056	19.998	100.312	20.061	22.223	0.950	900.118
228.502	293.975	80.055	19.997	100.315	20.061	22.343	0.998	900.078
229.002	294.466	80.056	19.998	100.321	20.052	22.994	1.007	900.131
229.502	294.965	80.053	19.997	100.319	20.044	23.726	0.990	900.083
230.002	295.474	80.055	19.998	100.314	20.038	24.159	1.008	900.087
230.503	295.972	80.060	20.000	100.315	20.031	24.727	1.005	900.086
231.003	296.473	80.058	19.999	100.313	20.025	25.159	0.999	900.118
231.503	296.976	80.057	19.999	100.308	20.018	25.711	1.005	900.067
232.003	297.472	80.056	19.999	100.315	20.014	26.021	0.999	900.099
232.503	298.000	80.055	19.997	100.311	20.007	26.591	1.025	900.123
233.002	298.484	80.056	19.999	100.311	19.999	27.074	1.012	900.072
233.502	299.003	80.054	19.998	100.305	19.997	27.220	1.003	900.083
234.002	299.492	80.054	19.997	100.305	19.990	27.770	1.008	900.084
234.503	300.013	80.052	19.997	100.296	19.984	28.154	1.009	900.088
235.002	300.523	80.051	19.998	100.300	19.974	28.964	1.032	900.087
235.502	301.001	80.055	19.999	100.298	19.970	29.288	0.989	900.109
236.003	301.535	80.056	19.999	100.298	19.966	29.632	1.012	900.097
236.503	301.995	80.055	19.998	100.293	19.959	30.199	0.993	900.099
237.003	302.533	80.055	19.998	100.293	19.957	30.465	0.997	900.079
237.503	303.024	80.053	19.999	100.290	19.948	31.116	1.030	900.093
238.002	303.498	80.056	19.999	100.285	19.946	31.299	0.965	900.088
238.502	303.985	80.056	19.999	100.288	19.937	31.965	0.960	900.091
239.002	304.501	80.054	19.999	100.289	19.933	32.280	1.003	900.115
239.503	305.017	80.054	19.998	100.290	19.929	32.550	1.032	900.112
240.003	305.497	80.055	19.999	100.294	19.922	33.082	0.996	900.084
240.502	306.016	80.053	19.998	100.299	19.918	33.368	0.998	900.080
241.003	306.513	80.055	19.997	100.298	19.918	33.438	1.015	900.104
241.503	307.027	80.055	19.999	100.301	19.915	33.594	1.011	900.090
242.003	307.484	80.054	20.000	100.303	19.909	34.031	0.971	900.087
242.503	307.992	80.054	20.000	100.302	19.902	34.584	0.965	900.108
243.003	308.496	80.053	19.999	100.296	19.901	34.672	1.013	900.089
243.503	309.009	80.056	19.999	100.294	19.892	35.335	1.017	900.103
244.003	309.493	80.056	19.999	100.290	19.890	35.559	0.998	900.107
244.502	309.971	80.054	19.999	100.287	19.890	35.573	0.962	900.062
245.003	310.488	80.055	19.999	100.286	19.886	35.880	0.994	900.069
245.502	310.981	80.055	20.000	100.289	19.878	36.497	1.010	900.095
246.002	311.483	80.053	20.000	100.289	19.873	36.869	0.995	900.073
246.503	312.011	80.054	20.000	100.291	19.869	37.123	1.030	900.112
247.003	312.481	80.055	20.000	100.293	19.867	37.334	0.997	900.126
247.503	312.982	80.055	20.000	100.292	19.861	37.671	0.971	900.084
248.003	313.495	80.054	19.999	100.291	19.857	37.914	1.014	900.088
248.503	314.014	80.052	19.998	100.290	19.855	38.092	1.032	900.068
249.003	314.503	80.056	19.999	100.293	19.854	38.105	1.009	900.075
249.502	315.018	80.054	19.998	100.294	19.849	38.430	1.005	900.077
250.002	315.504	80.055	19.999	100.293	19.848	38.512	1.000	900.067
250.502	316.029	80.056	19.999	100.293	19.842	38.957	1.011	900.079
251.002	316.504	80.054	19.998	100.294	19.840	39.113	1.000	900.105
251.503	317.003	80.055	19.999	100.290	19.834	39.479	0.974	900.091
252.003	317.506	80.057	19.998	100.285	19.829	39.810	1.002	900.089
252.502	318.019	80.054	19.999	100.288	19.823	40.235	1.016	900.086
253.003	318.511	80.056	19.999	100.289	19.822	40.203	1.004	900.094
253.503	319.002	80.055	20.000	100.288	19.812	40.858	0.983	900.082
254.003	319.493	80.053	19.999	100.293	19.803	41.405	0.982	900.084
254.503	319.996	80.055	19.998	100.296	19.797	41.853	0.994	900.053
255.003	320.506	80.052	19.998	100.299	19.790	42.302	1.012	900.075
255.503	321.029	80.051	19.997	100.305	19.784	42.729	1.033	900.088
256.003	321.497	80.055	19.997	100.307	19.779	43.118	0.992	900.107
256.503	321.995	80.052	19.997	100.307	19.768	43.953	0.966	900.092
257.003	322.489	80.053	19.998	100.313	19.762	44.515	0.992	900.096
257.503	322.981	80.055	19.999	100.312	19.751	45.441	0.985	900.091
258.003	323.512	80.055	19.998	100.310	19.741	46.161	1.022	900.103
258.503	323.991	80.056	19.999	100.315	19.728	47.086	1.010	900.088
259.003	324.495	80.054	19.999	100.321	19.716	47.881	0.984	900.089
259.503	325.012	80.053	19.998	100.323	19.706	48.595	1.021	900.117
260.003	325.471	80.053	19.998	100.330	19.693	49.458	0.975	900.079
260.503	325.986	80.052	19.997	100.337	19.677	50.606	0.974	900.067
261.003	326.519	80.055	19.999	100.344	19.665	51.537	1.048	900.075
261.503	326.998	80.055	19.998	100.349	19.654	52.398	1.012	900.106
262.003	327.502	80.054	19.999	100.357	19.635	53.882	0.984	900.075
262.503	327.995	80.053	19.998	100.361	19.616	55.396	0.996	900.083
263.003	328.508	80.055	19.998	100.361	19.602	56.424	1.005	900.076
263.504	329.000	80.053	19.997	100.360	19.580	58.069	1.005	900.072
264.003	329.493	80.053	19.999	100.357	19.560	59.628	0.985	900.098
264.503	329.973	80.053	19.998	100.351	19.542	60.978	0.973	900.069
265.003	330.489	80.054	19.998	100.347	19.518	62.753	0.996	900.084
265.503	331.027	80.056	19.998	100.350	19.496	64.425	1.055	900.074
266.003	331.503	80.054	19.999	100.357	19.478	65.768	1.014	900.111
266.503	332.030	80.055	19.999	100.367	19.453	67.712	1.003	900.084
267.003	332.502	80.054	20.000	100.376	19.427	69.704	0.999	900.088
267.503	333.015	80.053	19.999	100.384	19.403	71.540	0.985	900.077
268.003	333.498	80.055	19.999	100.387	19.377	73.560	0.996	900.086
268.503	334.003	80.055	19.999	100.385	19.349	75.657	0.989	900.080
269.003	334.498	80.053	19.998	100.381	19.320	77.820	1.000	900.075
269.503	335.011	80.054	19.999	100.379	19.289	80.138	1.007	900.070
270.003	335.514	80.053	19.998	100.376	19.261	82.245	1.016	900.093
270.503	336.023	80.053	19.998	100.379	19.233	84.390	1.012	900.110
271.004	336.530	80.053	19.999	100.382	19.203	86.545	1.016	900.095
271.503	337.014	80.053	19.998	100.384	19.170	89.143	0.992	900.081
272.003	337.500	80.053	19.999	100.388	19.139	91.594	0.970	900.102
272.503	338.010	80.054	19.999	100.392	19.102	94.543	0.995	900.074
273.004	338.495	80.054	19.997	100.392	19.071	96.903	0.995	900.084
273.503	338.987	80.056	19.997	100.393	19.033	99.805	0.978	900.105
274.003	339.509	80.054	19.997	100.394	18.999	102.513	1.014	900.090
274.504	339.965	80.055	19.997	100.393	18.962	105.302	0.977	900.080
275.004	340.488	80.052	19.998	100.391	18.925	108.179	0.979	900.120
275.503	340.957	80.053	19.999	100.391	18.890	110.841	0.993	900.108
276.003	341.439	80.055	19.998	100.393	18.852	113.750	0.951	900.110
276.503	341.935	80.056	19.998	100.400	18.814	116.685	0.978	900.117
277.003	342.457	80.054	19.998	100.405	18.775	119.668	1.018	900.084
277.503	342.979	80.055	19.998	100.407	18.736	122.714	1.044	900.112
278.003	343.478	80.055	19.999	100.410	18.695	125.868	1.020	900.108
278.504	343.944	80.054	19.998	100.414	18.651	129.291	0.964	900.102
279.004	344.464	80.055	19.998	100.411	18.612	132.212	0.987	900.071
279.504	344.968	80.054	19.998	100.403	18.569	135.540	1.025	900.093
280.003	345.449	80.053	19.997	100.400	18.528	138.699	0.984	900.103
280.503	345.963	80.053	19.999	100.398	18.484	142.069	0.994	900.080
281.004	346.462	80.052	19.999	100.392	18.442	145.214	1.014	900.108
281.503	346.958	80.053	19.997	100.390	18.399	148.484	0.995	900.099
282.003	347.464	80.054	19.999	100.394	18.354	151.943	1.002	900.123
282.504	347.942	80.052	19.998	100.392	18.308	155.520	0.984	900.077
283.004	348.473	80.054	19.998	100.392	18.264	158.870	1.009	900.140
283.503	348.932	80.054	19.999	100.387	18.220	162.234	0.990	900.091
284.003	349.439	80.055	19.998	100.386	18.174	165.843	0.965	900.093
284.504	349.928	80.055	19.998	100.388	18.128	169.408	0.996	900.120
285.003	350.447	80.055	19.999	100.388	18.082	172.935	1.009	900.119
285.503	350.957	80.052	19.998	100.381	18.037	176.386	1.029	900.136
286.003	351.439	80.053	19.999	100.378	17.989	180.099	0.991	900.081
286.504	351.931	80.054	20.000	100.378	17.942	183.650	0.974	900.110
287.004	352.421	80.056	19.999	100.375	17.897	187.010	0.982	900.092
287.504	352.914	80.056	19.999	100.377	17.846	190.894	0.984	900.131
288.003	353.422	80.054	19.999	100.376	17.804	194.118	1.001	900.116
288.503	353.927	80.055	19.998	100.378	17.759	197.466	1.013	900.130
289.003	354.433	80.056	19.999	100.378	17.708	201.371	1.011	900.123
289.503	354.916	80.057	19.999	100.375	17.664	204.642	0.989	900.119
290.003	355.418	80.055	19.999	100.373	17.618	208.194	0.985	900.112
290.503	355.905	80.054	19.999	100.374	17.571	211.780	0.989	900.112
291.003	356.395	80.053	19.998	100.368	17.527	215.247	0.977	900.122
291.504	356.886	80.054	19.999	100.361	17.483	218.612	0.980	900.130
292.004	357.387	80.055	20.000	100.357	17.441	221.848	0.992	900.146
292.503	357.864	80.055	19.999	100.355	17.393	225.517	0.979	900.094
293.003	358.371	80.053	19.999	100.353	17.349	228.947	0.985	900.103
293.503	358.869	80.056	19.999	100.351	17.304	232.341	1.004	900.141
294.003	359.359	80.058	19.998	100.350	17.258	235.851	0.988	900.145
294.503	359.855	80.054	19.999	100.352	17.213	239.210	0.986	900.108
295.004	360.390	80.054	19.999	100.355	17.174	242.244	1.031	900.179
295.504	360.854	80.055	19.997	100.355	17.131	245.468	1.000	900.123
296.003	361.362	80.052	19.997	100.357	17.090	248.542	0.971	900.127
296.504	361.832	80.055	19.998	100.359	17.048	251.688	0.977	900.141
297.004	362.330	80.055	19.997	100.358	17.008	254.626	0.968	900.115
297.503	362.833	80.056	19.998	100.353	16.971	257.391	1.001	900.145
298.003	363.318	80.057	19.997	100.351	16.932	260.310	0.988	900.128
298.503	363.851	80.055	19.999	100.343	16.898	262.804	1.017	900.139
299.004	364.318	80.056	19.998	100.336	16.857	265.818	1.000	900.121
299.504	364.839	80.055	19.998	100.331	16.824	268.241	0.989	900.152
300.003	365.292	80.053	19.998	100.327	16.790	270.728	0.975	900.136
300.503	365.826	80.055	19.998	100.323	16.758	273.167	0.986	900.126
301.003	366.295	80.057	19.997	100.324	16.724	275.629	1.003	900.122
301.504	366.826	80.057	19.999	100.325	16.693	277.861	1.000	900.145
302.004	367.280	80.055	19.999	100.323	16.662	280.147	0.985	900.144
302.504	367.797	80.054	19.998	100.321	16.628	282.465	0.971	900.118
303.004	368.313	80.056	19.999	100.322	16.594	284.891	1.033	900.127
303.504	368.805	80.058	20.000	100.324	16.565	286.913	1.008	900.154
304.004	369.269	80.057	19.999	100.330	16.530	289.375	0.956	900.147
304.504	369.774	80.057	19.998	100.333	16.500	291.519	0.970	900.145
305.003	370.267	80.057	19.999	100.341	16.465	294.022	0.998	900.154
305.503	370.760	80.055	20.000	100.342	16.437	296.144	0.985	900.135
306.004	371.268	80.057	19.999	100.347	16.405	298.529	1.000	900.140
306.504	371.739	80.058	19.998	100.352	16.371	301.061	0.979	900.154
307.004	372.273	80.056	20.000	100.360	16.334	303.844	1.005	900.154
307.504	372.772	80.054	19.999	100.363	16.295	306.840	1.033	900.151
308.004	373.247	80.055	19.999	100.367	16.241	311.006	0.975	900.125
308.503	373.746	80.055	20.000	100.373	16.193	314.924	0.975	900.169
309.003	374.266	80.055	20.000	100.377	16.149	318.448	1.018	900.156
309.503	374.760	80.052	19.998	100.387	16.111	321.446	1.014	900.142
310.003	375.249	80.052	19.998	100.407	16.080	323.933	0.983	900.127
310.503	375.765	80.052	19.998	100.425	16.050	326.388	1.005	900.143
311.003	376.277	80.052	19.999	100.436	16.017	328.945	1.028	900.173
311.503	376.752	80.056	19.998	100.451	15.986	331.162	0.988	900.134
312.003	377.253	80.057	19.997	100.462	15.957	333.297	0.975	900.196
312.504	377.764	80.056	19.998	100.460	15.924	335.811	1.012	900.149
313.004	378.214	80.056	19.998	100.470	15.898	337.787	0.961	900.161
313.504	378.708	80.054	19.998	100.474	15.882	338.972	0.944	900.145
314.004	379.190	80.054	19.999	100.472	15.884	338.844	0.975	900.142
314.504	379.704	80.054	20.000	100.466	15.895	338.015	0.995	900.133
315.004	380.214	80.052	19.998	100.465	15.891	338.253	1.025	900.124
315.503	380.701	80.053	20.000	100.444	15.887	338.513	0.997	900.163
316.003	381.210	80.054	19.999	100.422	15.874	339.383	0.996	900.137
316.503	381.698	80.053	19.999	100.402	15.865	339.978	0.997	900.177
317.004	382.143	80.057	20.000	100.386	15.849	341.001	0.932	900.149
317.503	382.685	80.055	19.999	100.366	15.841	341.585	0.987	900.146
318.004	383.181	80.054	19.999	100.362	15.831	342.361	1.037	900.152
318.505	383.692	80.053	20.000	100.364	15.818	343.348	1.006	900.119
319.004	384.195	80.053	19.999	100.369	15.811	343.778	1.015	900.132
319.504	384.664	80.055	19.999	100.370	15.809	343.737	0.972	900.144
320.004	385.202	80.054	20.000	100.374	15.812	343.346	1.007	900.130
320.504	385.692	80.053	19.999	100.368	15.826	341.995	1.028	900.132
321.003	386.181	80.054	19.999	100.368	15.837	340.723	0.979	900.135
321.503	386.676	80.055	19.998	100.363	15.841	340.117	0.983	900.136
322.004	387.182	80.052	19.999	100.366	15.835	340.333	1.001	900.149
322.504	387.705	80.054	19.999	100.375	15.826	340.977	1.030	900.156
323.003	388.174	80.054	19.999	100.385	15.821	341.397	0.992	900.127
323.504	388.648	80.056	19.999	100.388	15.817	341.907	0.942	900.133
324.004	389.168	80.055	20.000	100.398	15.820	341.921	0.993	900.148
324.504	389.659	80.054	19.999	100.408	15.826	341.552	1.011	900.160
325.004	390.149	80.054	20.000	100.407	15.831	341.066	0.981	900.153
325.504	390.685	80.053	20.001	100.407	15.815	342.241	1.026	900.169
326.004	391.174	80.053	20.000	100.415	15.780	344.793	1.025	900.141
326.504	391.660	80.055	20.001	100.417	15.743	347.506	0.975	900.149
327.004	392.203	80.051	19.999	100.427	15.730	348.639	1.029	900.144
327.504	392.659	80.053	20.000	100.449	15.739	348.154	0.999	900.141
328.004	393.154	80.055	19.999	100.491	15.762	346.855	0.951	900.158
328.504	393.668	80.057	20.000	100.534	15.790	344.340	1.010	900.125
329.004	394.164	80.056	19.998	100.563	15.816	341.726	1.011	900.165
329.504	394.666	80.055	19.999	100.576	15.839	339.640	0.998	900.163
330.004	395.147	80.052	19.997	100.571	15.875	336.678	0.983	900.173
330.504	395.678	80.054	20.000	100.548	15.898	333.960	1.011	900.195
331.004	396.175	80.054	20.001	100.520	15.899	333.094	1.027	900.151
331.504	396.669	80.054	20.000	100.512	15.886	334.410	0.991	900.192
332.004	397.170	80.053	20.001	100.504	15.876	335.773	0.995	900.170
332.504	397.662	80.053	20.000	100.524	15.885	335.601	0.993	900.172
333.004	398.195	80.055	20.000	100.535	15.921	333.199	1.025	900.173
333.504	398.681	80.056	20.000	100.542	15.974	330.164	1.020	900.190
334.004	399.187	80.052	20.000	100.537	15.998	328.774	0.992	900.191
334.504	399.692	80.050	19.999	100.523	15.961	331.927	1.011	900.189
335.004	400.192	80.049	20.000	100.485	15.923	335.266	1.005	900.162
335.504	400.675	80.051	19.998	100.449	15.914	336.388	0.983	900.179
336.004	401.174	80.051	19.998	100.500	15.922	336.286	0.982	900.193
336.504	401.682	80.050	20.000	100.572	15.913	337.441	1.007	900.176
337.004	402.165	80.052	19.999	100.625	15.903	338.863	0.991	900.200
337.504	402.669	80.053	19.999	100.664	15.920	338.138	0.987	900.177
338.004	403.171	80.052	19.999	100.775	15.967	334.810	1.006	900.144
338.504	403.673	80.054	19.999	100.772	16.041	329.261	1.004	900.154
339.004	404.177	80.056	20.000	100.725	16.121	323.022	1.006	900.195
339.504	404.677	80.054	19.999	100.689	16.200	316.737	1.003	900.178
340.005	405.186	80.054	19.997	100.660	16.277	310.623	1.008	900.174
340.505	405.675	80.053	19.998	100.563	16.354	304.481	0.999	900.147
341.004	406.173	80.056	19.997	100.493	16.437	297.796	0.987	900.184
341.504	406.695	80.057	19.998	100.469	16.530	290.490	1.020	900.160
342.004	407.227	80.053	19.999	100.455	16.616	283.773	1.054	900.197
342.504	407.704	80.052	19.999	100.421	16.698	277.474	1.008	900.166
343.004	408.205	80.053	19.998	100.374	16.777	271.306	0.978	900.187
343.504	408.710	80.052	19.998	100.326	16.848	265.784	1.007	900.161
344.004	409.257	80.056	19.999	100.254	16.911	260.926	1.052	900.190
344.504	409.722	80.054	19.999	100.197	16.977	255.818	1.012	900.164
345.004	410.228	80.053	19.999	100.172	17.045	250.694	0.971	900.203
345.504	410.775	80.053	19.999	100.168	17.112	245.602	1.052	900.198
346.004	411.259	80.050	20.000	100.175	17.184	240.093	1.031	900.191
346.504	411.784	80.052	19.999	100.202	17.254	234.776	1.009	900.195
347.004	412.286	80.054	19.999	100.235	17.331	228.815	1.028	900.212
347.504	412.776	80.053	19.999	100.272	17.409	222.725	0.992	900.150
348.004	413.272	80.055	19.999	100.308	17.490	216.288	0.986	900.222
348.504	413.783	80.054	19.999	100.342	17.573	209.729	1.007	900.168
349.004	414.312	80.053	19.999	100.359	17.665	202.467	1.040	900.203
349.504	414.795	80.055	19.999	100.374	17.755	195.229	1.012	900.177
350.004	415.303	80.054	19.999	100.389	17.846	188.053	0.991	900.194
350.504	415.820	80.054	20.000	100.402	17.935	180.915	1.024	900.206
351.005	416.312	80.054	19.999	100.413	18.029	173.452	1.008	900.230
351.505	416.804	80.052	19.998	100.425	18.114	166.641	0.984	900.209
352.005	417.352	80.052	19.999	100.429	18.201	159.758	1.040	900.180
352.505	417.838	80.052	19.999	100.428	18.286	153.117	1.035	900.216
353.005	418.371	80.050	20.000	100.431	18.365	146.846	1.019	900.181
353.505	418.865	80.054	20.000	100.432	18.444	140.725	1.026	900.187
354.005	419.392	80.051	19.999	100.437	18.517	135.009	1.021	900.207
354.504	419.898	80.053	19.998	100.451	18.598	128.690	1.035	900.199
355.004	420.406	80.055	19.998	100.470	18.666	123.337	1.014	900.186
355.504	420.927	80.055	19.999	100.489	18.743	117.255	1.028	900.220
356.004	421.453	80.053	19.999	100.515	18.811	111.983	1.047	900.212
356.504	421.966	80.054	19.999	100.542	18.882	106.337	1.040	900.219
357.004	422.458	80.054	20.000	100.568	18.949	101.025	1.006	900.210
357.504	422.957	80.057	20.000	100.591	19.009	96.301	0.992	900.218
358.004	423.487	80.055	19.998	100.618	19.069	91.563	1.029	900.225
358.504	423.969	80.056	19.999	100.643	19.129	86.950	1.011	900.250
359.005	424.496	80.057	19.999	100.664	19.184	82.556	1.008	900.211
359.505	424.980	80.053	19.998	100.679	19.239	78.271	1.011	900.253
360.005	425.469	80.055	19.998	100.698	19.294	73.998	0.974	900.236
360.504	426.024	80.055	19.998	100.709	19.345	70.198	1.044	900.250
361.004	426.475	80.051	19.998	100.713	19.393	66.492	1.006	900.265
361.505	427.013	80.050	19.998	100.720	19.441	62.847	0.988	900.276
362.005	427.500	80.049	19.997	100.733	19.484	59.676	1.025	900.226
362.505	428.007	80.051	19.999	100.740	19.530	56.282	0.995	900.242
363.004	428.513	80.052	19.999	100.753	19.573	53.009	1.014	900.224
363.504	428.999	80.051	19.998	100.766	19.611	50.219	0.992	900.223
364.004	429.511	80.052	20.000	100.775	19.647	47.603	0.997	900.231
364.505	429.997	80.053	20.000	100.784	19.688	44.572	0.997	900.230
365.005	430.509	80.052	19.999	100.798	19.721	42.115	0.998	900.274
365.505	431.022	80.053	19.999	100.801	19.758	39.423	1.025	900.214
366.005	431.497	80.054	19.999	100.805	19.787	37.344	0.989	900.244
366.505	432.047	80.053	19.999	100.815	19.819	35.083	1.025	900.257
367.005	432.526	80.052	19.999	100.817	19.850	32.840	1.029	900.238
367.505	433.032	80.050	19.998	100.813	19.879	30.779	0.985	900.229
368.005	433.571	80.053	19.998	100.809	19.908	28.743	1.045	900.278
368.504	434.071	80.056	20.000	100.810	19.934	26.944	1.040	900.262
369.004	434.550	80.052	19.999	100.800	19.957	25.254	0.979	900.247
369.504	435.033	80.053	19.999	100.789	19.980	23.678	0.962	900.256
370.004	435.535	80.055	19.999	100.782	20.002	22.097	0.985	900.243
370.504	436.046	80.052	19.998	100.779	20.022	20.718	1.013	900.254
371.004	436.540	80.055	19.999	100.768	20.040	19.545	1.004	900.283
371.505	437.036	80.057	20.000	100.758	20.063	17.890	0.990	900.265
372.005	437.538	80.054	20.000	100.750	20.080	16.733	0.999	900.257
372.504	438.040	80.056	20.001	100.740	20.095	15.674	1.005	900.254
373.004	438.519	80.056	20.000	100.728	20.111	14.580	0.981	900.288
373.505	439.023	80.054	19.999	100.715	20.125	13.698	0.982	900.271
374.005	439.526	80.057	20.000	100.702	20.140	12.669	1.007	900.278
374.504	440.049	80.052	19.999	100.689	20.153	11.857	1.027	900.277
375.005	440.507	80.054	20.000	100.675	20.167	11.019	0.981	900.251
375.505	441.049	80.052	20.001	100.663	20.182	10.083	1.000	900.318
376.005	441.545	80.053	19.999	100.655	20.194	9.362	1.037	900.273
376.505	442.028	80.056	19.999	100.644	20.201	9.013	0.979	900.289
377.005	442.507	80.056	19.999	100.634	20.209	8.499	0.962	900.239
377.505	442.993	80.054	19.998	100.623	20.221	7.672	0.965	900.250
378.005	443.510	80.051	19.999	100.610	20.230	7.163	1.003	900.250
378.505	443.994	80.052	19.998	100.594	20.239	6.531	1.001	900.252
379.005	444.504	80.054	19.998	100.584	20.246	6.112	0.994	900.274
379.505	445.021	80.053	19.999	100.577	20.257	5.514	1.027	900.264
380.005	445.529	80.051	19.998	100.566	20.266	4.924	1.025	900.261
380.505	446.018	80.052	19.999	100.558	20.272	4.630	0.997	900.268
381.005	446.474	80.052	19.999	100.550	20.276	4.420	0.945	900.253
381.505	447.030	80.049	19.998	100.536	20.285	3.899	1.012	900.249
382.005	447.508	80.051	19.998	100.521	20.289	3.714	1.034	900.249
382.505	448.005	80.051	19.997	100.504	20.298	3.150	0.976	900.267
383.004	448.526	80.055	19.998	100.488	20.298	3.293	1.019	900.264
383.504	449.000	80.053	19.999	100.478	20.305	2.837	0.994	900.310
384.004	449.523	80.055	19.999	100.467	20.307	2.761	0.996	900.255
384.505	449.996	80.056	19.997	100.459	20.314	2.239	0.996	900.266
385.005	450.491	80.055	19.998	100.453	20.322	1.777	0.968	900.288
385.505	450.994	80.053	19.998	100.441	20.321	1.928	0.997	900.277
386.005	451.480	80.053	19.997	100.433	20.323	1.803	0.989	900.259
386.505	451.998	80.051	19.999	100.424	20.328	1.462	1.004	900.261
387.006	452.502	80.052	19.998	100.408	20.328	1.625	1.022	900.274
387.505	453.027	80.055	19.997	100.397	20.334	1.179	1.029	900.275
388.005	453.498	80.054	19.997	100.392	20.338	0.850	0.996	900.264
388.505	454.004	80.055	19.996	100.381	20.337	0.965	0.978	900.284
389.005	454.519	80.054	19.997	100.368	20.342	0.632	1.021	900.278
389.505	454.996	80.053	19.997	100.366	20.345	0.514	0.991	900.284
390.005	455.500	80.055	19.996	100.356	20.346	0.428	0.981	900.284
390.505	456.018	80.054	19.997	100.344	20.349	0.163	1.022	900.281
391.005	456.490	80.053	19.995	100.339	20.349	0.225	0.990	900.273
391.505	456.997	80.057	19.997	100.339	20.352	0.063	0.980	900.285
392.005	457.505	80.056	19.997	100.331	20.357	-0.307	1.015	900.274
392.505	457.994	80.056	19.997	100.322	20.357	-0.270	0.996	900.286
393.005	458.495	80.056	19.997	100.322	20.361	-0.455	0.991	900.264
393.505	458.984	80.056	19.997	100.314	20.363	-0.549	0.991	900.299
394.005	459.456	80.055	19.996	100.311	20.364	-0.562	0.960	900.311
394.505	460.004	80.056	19.998	100.303	20.369	-0.903	1.020	900.298
395.005	460.476	80.055	19.998	100.304	20.370	-0.980	1.020	900.276
395.505	460.942	80.054	19.997	100.303	20.368	-0.820	0.939	900.269
396.005	461.449	80.055	19.998	100.300	20.369	-0.864	0.974	900.262
396.505	461.948	80.055	19.998	100.292	20.368	-0.819	1.005	900.265
397.005	462.466	80.055	19.998	100.295	20.372	-1.008	1.016	900.287
397.505	462.947	80.054	19.998	100.294	20.374	-1.154	0.999	900.294
398.004	463.455	80.056	19.999	100.291	20.373	-1.043	0.989	900.271
398.505	463.943	80.058	19.999	100.290	20.372	-0.851	0.995	900.308
399.005	464.460	80.055	19.998	100.287	20.375	-0.961	1.005	900.295
399.504	464.936	80.056	19.998	100.285	20.374	-1.016	0.994	900.283
400.004	465.439	80.056	19.997	100.282	20.374	-0.999	0.979	900.304
400.505	465.932	80.056	19.998	100.271	20.375	-1.055	0.996	900.309
401.005	466.447	80.055	19.998	100.265	20.377	-1.186	1.008	900.305
401.505	466.951	80.054	19.998	100.262	20.377	-1.180	1.019	900.316
402.005	467.436	80.056	19.998	100.259	20.379	-1.350	0.989	900.312
402.505	467.944	80.058	19.997	100.257	20.377	-1.118	0.993	900.306
403.005	468.441	80.056	19.997	100.263	20.378	-1.218	1.004	900.279
403.505	468.945	80.057	19.999	100.264	20.381	-1.440	1.000	900.307
404.006	469.439	80.056	19.998	100.260	20.379	-1.279	0.998	900.317
404.505	469.943	80.056	19.998	100.252	20.382	-1.535	1.000	900.322
405.005	470.430	80.055	19.997	100.249	20.377	-1.111	0.992	900.330
405.505	470.943	80.052	19.997	100.244	20.379	-1.280	1.000	900.317
406.005	471.434	80.054	19.998	100.238	20.380	-1.395	1.003	900.289
406.505	471.920	80.057	19.997	100.236	20.383	-1.613	0.976	900.313
407.005	472.440	80.054	19.998	100.244	20.384	-1.614	1.006	900.319
407.505	472.933	80.057	19.998	100.242	20.385	-1.635	1.013	900.311
408.005	473.429	80.056	19.998	100.240	20.384	-1.558	0.989	900.314
408.505	473.937	80.053	19.998	100.241	20.382	-1.385	1.005	900.285
409.005	474.424	80.056	19.999	100.242	20.385	-1.586	0.994	900.297
409.505	474.918	80.055	19.999	100.237	20.386	-1.685	0.980	900.346
410.005	475.410	80.055	19.997	100.235	20.383	-1.457	0.986	900.355
410.505	475.922	80.054	19.999	100.234	20.383	-1.405	1.004	900.332
411.005	476.423	80.055	19.999	100.234	20.382	-1.416	1.014	900.312
411.505	476.919	80.056	19.999	100.234	20.382	-1.423	0.998	900.348
412.005	477.430	80.056	19.998	100.237	20.386	-1.660	1.006	900.326
412.505	477.901	80.052	19.998	100.236	20.381	-1.341	0.981	900.333
413.006	478.409	80.056	20.000	100.238	20.381	-1.365	0.978	900.347
413.506	478.905	80.053	19.997	100.237	20.380	-1.393	1.005	900.333
414.005	479.392	80.054	19.997	100.236	20.382	-1.497	0.984	900.341
414.505	479.912	80.056	19.999	100.230	20.381	-1.400	1.007	900.335
415.005	480.397	80.054	19.998	100.229	20.380	-1.320	1.006	900.311
415.505	480.883	80.055	19.998	100.224	20.381	-1.407	0.970	900.346
416.005	481.389	80.053	19.997	100.225	20.384	-1.624	0.992	900.362
416.505	481.899	80.055	19.998	100.226	20.385	-1.712	1.015	900.371
417.005	482.398	80.058	19.998	100.227	20.384	-1.637	1.008	900.378
417.505	482.889	80.054	19.997	100.224	20.383	-1.543	0.991	900.366
418.005	483.387	80.055	19.997	100.226	20.384	-1.594	0.990	900.356
418.505	483.890	80.057	19.998	100.226	20.384	-1.599	1.001	900.381
419.005	484.383	80.058	19.997	100.225	20.382	-1.452	0.996	900.348
419.505	484.901	80.057	19.998	100.227	20.384	-1.666	1.010	900.350
420.006	485.367	80.060	19.999	100.232	20.384	-1.594	0.984	900.364
420.505	485.861	80.061	19.998	100.233	20.381	-1.416	0.961	900.375
421.005	486.359	80.061	19.998	100.236	20.384	-1.587	0.992	900.383
421.505	486.873	80.060	19.998	100.234	20.383	-1.482	1.011	900.360
422.005	487.351	80.060	19.999	100.235	20.382	-1.376	0.992	900.387
422.505	487.846	80.060	19.999	100.233	20.381	-1.154	0.974	900.391
423.005	488.360	80.059	19.998	100.234	20.377	-0.896	1.009	900.390
423.505	488.866	80.060	19.997	100.232	20.383	-1.330	1.019	900.422
424.005	489.334	80.062	19.998	100.235	20.384	-1.392	0.973	900.377
424.505	489.836	80.058	19.997	100.234	20.383	-1.235	0.969	900.401
425.006	490.342	80.058	19.997	100.235	20.384	-1.315	1.008	900.401
425.506	490.851	80.060	19.998	100.232	20.386	-1.596	1.015	900.390
426.006	491.341	80.060	19.998	100.233	20.385	-1.510	0.999	900.401
426.505	491.847	80.058	19.998	100.232	20.386	-1.573	0.997	900.389
427.005	492.338	80.059	19.999	100.234	20.384	-1.499	0.997	900.382
427.505	492.875	80.059	19.997	100.232	20.386	-1.646	1.028	900.410
428.005	493.378	80.060	19.997	100.234	20.388	-1.817	1.041	900.413
428.505	493.881	80.059	19.998	100.229	20.388	-1.737	1.006	900.433
429.006	494.342	80.056	19.998	100.227	20.387	-1.675	0.962	900.420
429.506	494.868	80.060	19.999	100.222	20.384	-1.439	0.986	900.432
430.006	495.346	80.057	19.999	100.216	20.388	-1.690	1.004	900.445
430.506	495.846	80.060	19.998	100.215	20.384	-1.493	0.977	900.446
431.006	496.370	80.060	19.997	100.215	20.388	-1.775	1.025	900.437
431.506	496.843	80.060	19.999	100.213	20.387	-1.721	0.998	900.448
432.006	497.370	80.058	19.999	100.211	20.386	-1.724	0.999	900.463
432.506	497.828	80.057	19.999	100.216	20.388	-1.819	0.985	900.434
433.006	498.342	80.057	19.998	100.217	20.386	-1.667	0.973	900.425
433.505	498.822	80.058	19.999	100.218	20.384	-1.439	0.993	900.449
434.007	499.323	80.057	19.999	100.221	20.390	-1.826	0.980	900.436
434.507	499.815	80.059	19.999	100.226	20.385	-1.430	0.995	900.443
435.005	500.334	80.057	19.998	100.225	20.388	-1.698	1.012	900.421
435.506	500.819	80.054	19.999	100.223	20.386	-1.469	1.003	900.454
436.006	501.320	80.057	19.999	100.220	20.386	-1.479	0.985	900.436
436.506	501.836	80.058	19.999	100.217	20.389	-1.729	1.017	900.438
437.006	502.304	80.057	19.999	100.217	20.387	-1.599	0.983	900.436
437.506	502.791	80.057	19.999	100.218	20.387	-1.586	0.956	900.461
438.006	503.291	80.057	19.999	100.223	20.387	-1.497	0.988	900.457
438.506	503.787	80.057	19.999	100.227	20.386	-1.446	0.996	900.456
439.006	504.340	80.059	19.999	100.228	20.388	-1.547	1.050	900.474
439.505	504.797	80.056	19.999	100.226	20.386	-1.404	1.011	900.468
440.005	505.283	80.056	19.998	100.226	20.383	-1.213	0.942	900.476
440.505	505.804	80.057	19.998	100.220	20.386	-1.518	1.006	900.485
441.006	506.315	80.056	19.998	100.216	20.385	-1.438	1.032	900.466
441.506	506.793	80.058	19.997	100.214	20.385	-1.517	0.990	900.436
442.005	507.281	80.059	19.998	100.213	20.386	-1.601	0.966	900.460
442.505	507.765	80.057	19.999	100.212	20.389	-1.789	0.972	900.471
443.006	508.276	80.059	19.999	100.212	20.387	-1.617	0.994	900.485
443.506	508.763	80.057	19.999	100.215	20.389	-1.715	0.998	900.462
444.005	509.251	80.057	19.998	100.216	20.388	-1.589	0.976	900.459
444.505	509.756	80.055	19.999	100.214	20.387	-1.410	0.993	900.445
445.006	510.292	80.053	19.999	100.212	20.388	-1.524	1.040	900.448
445.506	510.768	80.054	19.998	100.208	20.388	-1.525	1.012	900.461
446.006	511.288	80.054	19.998	100.208	20.389	-1.668	0.996	900.455
446.506	511.802	80.053	19.999	100.208	20.387	-1.503	1.033	900.461
447.006	512.287	80.059	19.999	100.210	20.388	-1.632	0.999	900.460
447.506	512.786	80.060	19.998	100.209	20.393	-2.047	0.984	900.487
448.005	513.311	80.055	19.998	100.216	20.389	-1.758	1.025	900.491
448.505	513.787	80.058	19.998	100.216	20.391	-1.883	1.001	900.466
449.005	514.304	80.058	19.997	100.220	20.388	-1.621	0.994	900.476
449.505	514.781	80.059	19.997	100.219	20.390	-1.764	0.995	900.497
450.005	515.292	80.058	19.997	100.220	20.391	-1.745	0.987	900.495
450.506	515.777	80.056	19.998	100.214	20.391	-1.788	0.994	900.518
451.006	516.281	80.058	19.998	100.210	20.390	-1.640	0.989	900.505
451.506	516.775	80.057	19.999	100.203	20.390	-1.659	0.998	900.479
452.006	517.288	80.055	19.998	100.200	20.389	-1.468	1.007	900.515
452.506	517.774	80.056	19.997	100.203	20.390	-1.565	1.000	900.492
453.005	518.267	80.056	19.998	100.207	20.390	-1.589	0.979	900.506
453.505	518.782	80.057	19.999	100.209	20.390	-1.588	1.008	900.495
454.005	519.258	80.056	19.999	100.212	20.386	-1.352	0.991	900.499
454.505	519.757	80.055	19.999	100.217	20.391	-1.759	0.975	900.521
455.006	520.269	80.056	19.998	100.214	20.390	-1.730	1.010	900.478
455.506	520.763	80.057	19.999	100.213	20.388	-1.653	1.006	900.502
456.006	521.276	80.056	19.999	100.211	20.389	-1.741	1.007	900.537
456.507	521.762	80.058	19.999	100.210	20.385	-1.492	0.999	900.511
457.006	522.269	80.056	19.997	100.206	20.388	-1.711	0.994	900.508
457.506	522.772	80.056	19.998	100.203	20.389	-1.734	1.010	900.537
458.006	523.277	80.058	19.998	100.203	20.389	-1.776	1.008	900.501
458.505	523.751	80.054	19.997	100.204	20.390	-1.768	0.979	900.515
459.006	524.244	80.055	19.999	100.202	20.389	-1.704	0.967	900.494
459.506	524.781	80.055	19.997	100.197	20.390	-1.783	1.031	900.519
460.005	525.270	80.055	19.997	100.199	20.388	-1.616	1.026	900.529
460.506	525.770	80.058	19.996	100.197	20.388	-1.660	0.988	900.517
461.006	526.248	80.055	19.997	100.199	20.390	-1.858	0.978	900.524
461.505	526.766	80.057	19.998	100.201	20.392	-2.096	0.996	900.537
462.006	527.254	80.056	19.998	100.208	20.392	-2.076	1.005	900.512
462.506	527.712	80.054	19.999	100.210	20.393	-2.142	0.946	900.535
463.006	528.244	80.056	20.000	100.214	20.391	-1.971	0.991	900.538
463.506	528.746	80.058	19.999	100.216	20.391	-1.904	1.033	900.537
464.006	529.237	80.058	19.999	100.218	20.388	-1.590	0.991	900.535
464.507	529.733	80.056	19.999	100.217	20.386	-1.440	0.986	900.506
465.007	530.246	80.056	19.998	100.216	20.391	-1.847	1.010	900.552
465.506	530.757	80.056	19.999	100.213	20.389	-1.615	1.025	900.524
466.006	531.265	80.058	19.998	100.208	20.389	-1.640	1.018	900.544
466.506	531.732	80.056	19.998	100.208	20.390	-1.706	0.975	900.521
467.006	532.240	80.059	19.998	100.210	20.388	-1.581	0.975	900.554
467.506	532.742	80.060	19.998	100.211	20.391	-1.759	1.011	900.549
468.006	533.228	80.058	19.997	100.216	20.389	-1.584	0.989	900.543
468.506	533.718	80.060	19.999	100.223	20.386	-1.391	0.975	900.545
469.006	534.206	80.060	19.998	100.222	20.392	-1.805	0.978	900.548
469.506	534.770	80.058	19.999	100.222	20.394	-1.871	1.053	900.561
470.006	535.224	80.057	20.000	100.220	20.389	-1.499	1.018	900.551
470.506	535.720	80.057	19.999	100.219	20.391	-1.591	0.950	900.550
471.006	536.206	80.056	19.999	100.212	20.395	-1.917	0.982	900.534
471.506	536.711	80.057	19.999	100.210	20.387	-1.273	0.991	900.581
472.006	537.192	80.055	19.998	100.210	20.388	-1.380	0.985	900.553
472.506	537.731	80.056	19.997	100.209	20.389	-1.429	1.020	900.541
473.006	538.218	80.056	19.997	100.205	20.389	-1.417	1.026	900.546
473.506	538.697	80.056	19.997	100.206	20.389	-1.401	0.965	900.524
474.007	539.225	80.057	19.998	100.208	20.391	-1.499	1.007	900.540
474.506	539.683	80.058	19.997	100.206	20.386	-1.178	0.987	900.569
475.006	540.192	80.054	19.997	100.207	20.386	-1.154	0.967	900.550
475.506	540.751	80.054	19.998	100.204	20.392	-1.684	1.067	900.578
476.007	541.219	80.054	19.998	100.205	20.390	-1.572	1.026	900.521
476.507	541.721	80.055	19.998	100.201	20.391	-1.700	0.971	900.533
477.006	542.189	80.054	19.998	100.197	20.395	-2.045	0.971	900.567
477.506	542.669	80.052	19.997	100.195	20.390	-1.645	0.948	900.551
478.007	543.200	80.054	19.998	100.194	20.393	-1.914	1.011	900.542
478.506	543.693	80.053	19.998	100.191	20.395	-1.994	1.024	900.590
479.006	544.182	80.052	19.998	100.194	0.000	0.000	0.982	900.569
479.506	544.682	80.054	19.997	100.195	0.000	0.000	0.989	900.565
480.007	545.191	80.056	19.997	100.194	0.000	0.000	1.009	900.566
480.507	545.666	80.052	19.997	100.193	0.000	0.000	0.984	900.583
481.006	546.198	80.052	19.998	100.190	0.000	0.000	1.007	900.566
481.506	546.685	80.051	19.998	100.186	0.000	0.000	1.019	900.525
482.006	547.184	80.053	19.998	100.189	0.000	0.000	0.986	900.583
482.506	547.706	80.055	19.997	100.193	0.000	0.000	1.021	900.574
483.006	548.203	80.056	19.996	100.200	0.000	0.000	1.020	900.560
483.507	548.673	80.057	19.997	100.202	0.000	0.000	0.967	900.579
484.006	549.176	80.056	19.997	100.204	0.000	0.000	0.973	900.561
484.506	549.698	80.059	19.997	100.203	0.000	0.000	1.025	900.564
485.006	550.200	80.059	19.997	100.204	0.000	0.000	1.023	900.546
485.507	550.662	80.056	19.998	100.200	0.000	0.000	0.964	900.562
486.007	551.213	80.058	19.997	100.200	0.000	0.000	1.014	900.576
486.506	551.702	80.056	19.999	100.200	0.000	0.000	1.041	900.584
487.006	552.196	80.058	20.000	100.201	0.000	0.000	0.983	900.583
487.506	552.663	80.057	19.999	100.201	0.000	0.000	0.959	900.589
488.007	553.194	80.056	19.999	100.200	0.000	0.000	0.998	900.585
488.506	553.677	80.055	19.998	100.197	0.000	0.000	1.016	900.584
