File Name:	PMMA_DE_6mm_60Kmin_4mg_R2.txt
Version: 8.3.7.3
Date:	13 Aug 2024
Operator:	KH
Test ID:	PMMA_DE_6mm_4mg_60K_R2
Sample ID:	PMMA_DE_6mm_4mg
Sample Mass (mg):	4.0500
Sample Cup Mass (mg):	184.2700
End Total Mass (mg):
Heating Rate (C/s):	1.0000
Combuster Temperature (C):	900.0
N2 Flow Rate (cc/min):	80.0
O2 Flow Rate (cc/min):	20.0
Calibration File:	Coeff.txt
T Correction Coefficients:	0.308738730	0.013615500	0.000000000
Time Shift (s):	10.0
Pre-Test Comments:
Post-Test Comments:
Baseline Flow:	100.127
Baseline O2:	20.280
Instrument ID:
@
Time (s)	Temperature (C)	N2 Flow (cc/min)	O2 Flow (cc/min)	Total Flow (cc/min)	Oxygen (%)	HRR (W/g)	Heating Rate (C/s)	Combustor Temp (C)
0.000	75.032	80.062	19.974	100.127	20.298	-9.942	-0.049	899.945
0.500	75.030	80.061	19.972	100.106	20.276	-8.284	-0.004	899.854
1.000	75.072	80.059	19.974	100.084	20.256	-6.845	0.040	899.921
1.500	75.064	80.059	19.973	100.081	20.235	-5.377	0.033	899.902
2.001	75.104	80.058	19.974	100.120	20.216	-3.977	0.032	899.920
2.500	75.130	80.060	19.972	100.207	20.203	-3.011	0.067	899.877
3.000	75.230	80.055	19.973	100.326	20.193	-2.265	0.126	899.829
3.500	75.186	80.061	19.973	100.474	20.186	-1.649	0.055	899.874
4.000	75.265	80.060	19.976	100.621	20.179	-1.118	0.035	900.013
4.500	75.380	80.057	19.974	100.734	20.175	-0.806	0.194	899.862
5.000	75.435	80.058	19.975	100.801	20.172	-0.984	0.171	899.892
5.500	75.507	80.055	19.975	100.831	20.166	-1.559	0.128	899.918
6.000	75.604	80.056	19.975	100.837	20.168	-3.492	0.169	899.926
6.501	75.675	80.056	19.974	100.835	20.163	-5.415	0.167	899.872
7.001	75.778	80.054	19.974	100.835	20.161	-7.577	0.174	899.882
7.500	75.862	80.057	19.974	100.835	20.163	-9.869	0.187	899.848
8.001	75.960	80.057	19.974	100.843	20.160	-11.415	0.182	899.851
8.500	76.092	80.054	19.974	100.854	20.163	-12.659	0.230	899.856
9.000	76.226	80.057	19.973	100.862	20.161	-12.642	0.266	899.829
9.500	76.341	80.058	19.973	100.865	20.163	-12.385	0.250	899.858
10.000	76.480	80.058	19.973	100.865	20.155	-11.273	0.255	899.827
10.501	76.606	80.057	19.975	100.864	20.141	-9.656	0.264	899.859
11.000	76.777	80.055	19.974	100.859	20.115	-7.128	0.296	899.805
11.500	76.926	80.056	19.974	100.855	20.086	-4.485	0.320	899.831
12.000	77.115	80.058	19.974	100.859	20.058	-1.812	0.338	899.840
12.500	77.262	80.055	19.973	100.895	20.034	0.576	0.336	899.826
13.001	77.465	80.055	19.974	100.982	20.016	2.451	0.350	899.848
13.501	77.715	80.055	19.974	101.133	20.005	3.764	0.453	899.795
14.000	77.943	80.056	19.973	101.320	20.006	4.216	0.478	899.823
14.500	78.188	80.057	19.974	101.507	20.004	4.949	0.473	899.802
15.000	78.475	80.058	19.974	101.660	20.011	4.878	0.532	899.801
15.500	78.751	80.057	19.974	101.752	20.010	5.267	0.562	899.781
16.001	79.049	80.057	19.975	101.773	20.014	5.350	0.574	899.799
16.501	79.341	80.056	19.976	101.749	20.020	5.244	0.591	899.767
17.000	79.706	80.057	19.975	101.711	20.019	5.649	0.657	899.757
17.501	80.048	80.057	19.974	101.672	20.032	4.933	0.707	899.756
18.001	80.404	80.056	19.973	101.634	20.048	3.973	0.698	899.744
18.501	80.797	80.059	19.974	101.604	20.050	4.137	0.749	899.783
19.001	81.145	80.059	19.973	101.575	20.053	4.285	0.741	899.771
19.501	81.563	80.058	19.973	101.542	20.071	3.241	0.767	899.760
20.001	81.948	80.061	19.973	101.505	20.077	3.174	0.803	899.746
20.501	82.356	80.059	19.973	101.471	20.089	2.558	0.793	899.730
21.001	82.755	80.059	19.972	101.432	20.083	3.384	0.807	899.749
21.501	83.223	80.058	19.974	101.393	20.089	3.158	0.867	899.729
22.001	83.617	80.055	19.975	101.360	20.094	3.008	0.862	899.705
22.500	84.065	80.055	19.974	101.332	20.099	2.801	0.843	899.717
23.000	84.489	80.058	19.974	101.307	20.106	2.481	0.873	899.671
23.500	84.950	80.058	19.973	101.282	20.110	2.373	0.885	899.702
24.000	85.388	80.058	19.973	101.261	20.111	2.531	0.899	899.709
24.500	85.861	80.057	19.975	101.238	20.116	2.515	0.910	899.684
25.001	86.337	80.056	19.973	101.215	20.120	2.651	0.948	899.729
25.501	86.826	80.060	19.974	101.194	20.123	2.686	0.965	899.717
26.000	87.244	80.059	19.974	101.171	20.128	2.466	0.908	899.674
26.500	87.747	80.057	19.973	101.148	20.140	1.647	0.921	899.692
27.001	88.189	80.058	19.974	101.122	20.134	2.256	0.944	899.735
27.501	88.705	80.056	19.975	101.097	20.131	2.474	0.958	899.698
28.001	89.257	80.052	19.976	101.069	20.136	2.144	1.070	899.659
28.500	89.643	80.061	19.972	101.047	20.146	1.455	0.939	899.628
29.000	90.176	80.059	19.974	101.032	20.154	1.005	0.918	899.711
29.501	90.741	80.056	19.974	101.022	20.149	1.528	1.097	899.634
30.001	91.247	80.054	19.973	101.010	20.151	1.492	1.072	899.542
30.500	91.800	80.049	19.976	100.997	20.157	1.105	1.059	899.630
31.001	92.203	80.058	19.972	100.980	20.157	1.242	0.956	899.652
31.501	92.688	80.059	19.975	100.958	20.157	1.387	0.888	899.649
32.001	93.175	80.060	19.973	100.928	20.158	1.346	0.972	899.560
32.500	93.740	80.057	19.974	100.902	20.154	1.713	1.053	899.612
33.000	94.261	80.056	19.974	100.883	20.159	1.376	1.086	899.584
33.500	94.741	80.056	19.973	100.873	20.160	1.310	1.001	899.585
34.000	95.282	80.056	19.974	100.865	20.166	0.929	1.021	899.597
34.501	95.772	80.056	19.973	100.867	20.165	1.091	1.030	899.611
35.001	96.288	80.061	19.972	100.869	20.169	0.874	1.006	899.622
35.501	96.824	80.059	19.974	100.866	20.168	1.074	1.052	899.667
36.001	97.292	80.060	19.974	100.852	20.176	0.523	1.004	899.601
36.501	97.936	80.058	19.974	100.839	20.171	0.910	1.113	899.555
37.001	98.418	80.058	19.977	100.833	20.177	0.440	1.126	899.694
37.501	98.873	80.060	19.973	100.825	20.178	0.433	0.937	899.568
38.001	99.419	80.058	19.974	100.817	20.183	0.167	1.002	899.573
38.500	99.997	80.057	19.975	100.812	20.186	0.035	1.124	899.549
39.001	100.539	80.055	19.975	100.802	20.176	0.906	1.119	899.478
39.501	101.029	80.059	19.975	100.794	20.190	0.021	1.032	899.543
40.000	101.579	80.059	19.974	100.795	20.182	0.694	1.040	899.498
40.500	102.094	80.059	19.974	100.794	20.184	0.565	1.066	899.517
41.000	102.622	80.057	19.974	100.790	20.188	0.228	1.043	899.513
41.500	103.106	80.061	19.974	100.787	20.187	0.311	1.012	899.580
42.001	103.671	80.059	19.974	100.780	20.187	0.351	1.049	899.563
42.501	104.192	80.061	19.975	100.768	20.188	0.262	1.086	899.504
43.001	104.765	80.057	19.975	100.761	20.187	0.396	1.094	899.467
43.500	105.267	80.057	19.974	100.760	20.181	0.904	1.075	899.521
44.000	105.828	80.057	19.974	100.760	20.187	0.527	1.063	899.431
44.501	106.339	80.059	19.976	100.762	20.193	0.116	1.072	899.561
45.001	106.884	80.055	19.975	100.755	20.188	0.523	1.056	899.462
45.501	107.381	80.057	19.974	100.747	20.189	0.519	1.041	899.460
46.001	107.983	80.055	19.973	100.739	20.192	0.340	1.099	899.393
46.501	108.443	80.058	19.973	100.728	20.191	0.451	1.063	899.461
47.001	109.025	80.058	19.974	100.716	20.190	0.580	1.043	899.451
47.501	109.533	80.061	19.973	100.716	20.191	0.546	1.090	899.454
48.001	110.127	80.057	19.974	100.717	20.195	0.202	1.101	899.448
48.501	110.664	80.056	19.974	100.717	20.198	-0.139	1.131	899.424
49.001	111.098	80.058	19.973	100.719	20.200	-0.374	0.971	899.422
49.501	111.744	80.055	19.973	100.718	20.195	0.004	1.078	899.323
50.001	112.203	80.061	19.975	100.715	20.195	-0.012	1.104	899.473
50.501	112.750	80.059	19.974	100.711	20.195	0.068	1.006	899.454
51.001	113.282	80.061	19.974	100.708	20.193	0.312	1.080	899.462
51.501	113.823	80.060	19.974	100.704	20.196	0.286	1.073	899.432
52.001	114.384	80.059	19.974	100.701	20.194	0.528	1.102	899.445
52.501	114.929	80.061	19.974	100.696	20.200	0.063	1.106	899.425
53.001	115.407	80.063	19.973	100.693	20.192	0.614	1.022	899.416
53.501	115.867	80.066	19.972	100.688	20.197	0.185	0.938	899.431
54.001	116.409	80.064	19.972	100.684	20.196	0.200	1.003	899.390
54.500	117.029	80.059	19.971	100.678	20.200	-0.188	1.161	899.352
55.001	117.573	80.060	19.975	100.676	20.199	-0.172	1.163	899.480
55.501	118.109	80.063	19.975	100.681	20.206	-0.727	1.080	899.430
56.001	118.652	80.059	19.973	100.692	20.207	-0.718	1.080	899.349
56.500	119.189	80.061	19.973	100.704	20.202	-0.224	1.081	899.397
57.000	119.711	80.061	19.974	100.705	20.205	-0.389	1.058	899.439
57.500	120.240	80.060	19.974	100.703	20.202	-0.026	1.050	899.429
58.001	120.801	80.060	19.973	100.690	20.201	0.083	1.090	899.354
58.501	121.304	80.059	19.973	100.677	20.205	-0.228	1.064	899.346
59.001	121.843	80.061	19.972	100.663	20.201	0.018	1.042	899.371
59.501	122.372	80.061	19.974	100.662	20.204	-0.162	1.069	899.414
60.001	122.943	80.060	19.973	100.664	20.207	-0.359	1.101	899.371
60.501	123.427	80.060	19.973	100.671	20.197	0.432	1.055	899.325
61.001	124.008	80.059	19.975	100.677	20.206	-0.202	1.064	899.320
61.501	124.514	80.059	19.974	100.684	20.200	0.359	1.088	899.361
62.001	125.015	80.063	19.974	100.688	20.202	0.210	1.007	899.400
62.501	125.595	80.058	19.974	100.691	20.205	-0.044	1.081	899.353
63.001	126.019	80.062	19.972	100.686	20.200	0.307	1.004	899.328
63.501	126.602	80.060	19.973	100.678	20.202	0.114	1.006	899.316
64.001	127.170	80.058	19.974	100.671	20.203	0.121	1.151	899.322
64.501	127.707	80.057	19.975	100.663	20.205	0.021	1.107	899.381
65.000	128.194	80.059	19.974	100.658	20.196	0.677	1.024	899.314
65.501	128.778	80.057	19.973	100.659	20.201	0.216	1.070	899.240
66.001	129.267	80.057	19.972	100.662	20.197	0.571	1.074	899.189
66.500	129.729	80.062	19.973	100.663	20.199	0.425	0.951	899.295
67.000	130.328	80.060	19.972	100.661	20.199	0.406	1.060	899.207
67.501	130.822	80.061	19.974	100.658	20.197	0.534	1.092	899.294
68.001	131.316	80.061	19.971	100.652	20.193	0.872	0.988	899.212
68.501	131.901	80.056	19.972	100.649	20.194	0.879	1.078	899.232
69.002	132.443	80.059	19.973	100.646	20.190	1.269	1.127	899.275
69.501	132.971	80.058	19.973	100.646	20.195	0.898	1.071	899.235
70.001	133.454	80.060	19.971	100.648	20.193	1.012	1.011	899.215
70.501	133.957	80.063	19.973	100.652	20.194	0.937	0.986	899.291
71.001	134.518	80.058	19.971	100.651	20.196	0.791	1.065	899.110
71.500	134.991	80.062	19.975	100.648	20.193	1.004	1.035	899.335
72.001	135.560	80.057	19.976	100.643	20.194	0.968	1.041	899.294
72.501	136.123	80.059	19.972	100.642	20.192	1.133	1.132	899.101
73.001	136.632	80.061	19.974	100.645	20.181	2.051	1.073	899.248
73.501	137.165	80.057	19.973	100.648	20.193	1.216	1.042	899.177
74.001	137.688	80.057	19.976	100.651	20.194	1.136	1.055	899.326
74.501	138.235	80.057	19.977	100.654	20.191	1.463	1.070	899.314
75.001	138.685	80.063	19.972	100.653	20.191	1.429	0.996	899.196
75.501	139.261	80.056	19.974	100.644	20.188	1.670	1.026	899.198
76.001	139.770	80.058	19.976	100.637	20.183	2.095	1.085	899.281
76.501	140.270	80.061	19.972	100.636	20.187	1.685	1.009	899.152
77.001	140.855	80.060	19.974	100.635	20.181	2.057	1.086	899.237
77.501	141.361	80.058	19.973	100.634	20.183	1.876	1.091	899.169
78.001	141.863	80.060	19.975	100.637	20.187	1.484	1.008	899.228
78.501	142.400	80.060	19.974	100.639	20.186	1.515	1.039	899.191
79.001	142.882	80.062	19.974	100.642	20.187	1.528	1.020	899.236
79.501	143.407	80.059	19.974	100.638	20.175	2.582	1.007	899.178
80.001	143.915	80.061	19.974	100.632	20.185	1.983	1.032	899.172
80.501	144.473	80.059	19.974	100.628	20.186	2.031	1.066	899.196
81.002	144.985	80.056	19.974	100.621	20.183	2.322	1.070	899.197
81.501	145.515	80.055	19.974	100.615	20.179	2.613	1.042	899.162
82.001	146.029	80.055	19.975	100.620	20.178	2.664	1.044	899.164
82.501	146.480	80.061	19.971	100.619	20.169	3.328	0.965	899.093
83.002	146.950	80.064	19.972	100.615	20.173	3.036	0.921	899.174
83.502	147.536	80.059	19.973	100.619	20.167	3.390	1.056	899.119
84.002	148.091	80.059	19.973	100.623	20.166	3.462	1.141	899.116
84.501	148.613	80.059	19.974	100.627	20.168	3.319	1.078	899.193
85.001	149.151	80.059	19.974	100.635	20.170	3.153	1.061	899.161
85.501	149.661	80.061	19.973	100.642	20.170	3.148	1.048	899.130
86.001	150.168	80.061	19.973	100.641	20.170	3.169	1.016	899.122
86.502	150.676	80.059	19.974	100.634	20.172	3.138	1.015	899.141
87.001	151.185	80.061	19.974	100.621	20.170	3.260	1.017	899.197
87.502	151.723	80.059	19.975	100.608	20.168	3.478	1.046	899.151
88.002	152.272	80.057	19.976	100.599	20.164	3.815	1.087	899.162
88.501	152.754	80.057	19.973	100.596	20.163	3.846	1.032	899.055
89.001	153.296	80.057	19.976	100.598	20.162	3.822	1.025	899.125
89.501	153.726	80.061	19.975	100.603	20.158	4.092	0.972	899.145
90.001	154.289	80.059	19.974	100.606	20.155	4.263	0.992	899.095
90.501	154.865	80.059	19.974	100.608	20.152	4.483	1.139	899.085
91.001	155.343	80.060	19.975	100.610	20.157	4.055	1.054	899.122
91.502	155.856	80.058	19.975	100.611	20.149	4.683	0.990	899.062
92.002	156.377	80.055	19.977	100.612	20.157	4.079	1.035	899.160
92.502	156.798	80.058	19.974	100.615	20.156	4.188	0.942	899.085
93.002	157.437	80.056	19.975	100.615	20.149	4.708	1.060	899.113
93.501	157.834	80.060	19.974	100.608	20.152	4.529	1.037	899.044
94.002	158.365	80.060	19.976	100.600	20.148	4.836	0.928	899.192
94.502	158.857	80.061	19.975	100.598	20.146	4.888	1.022	899.098
95.002	159.368	80.060	19.975	100.599	20.146	4.860	1.003	899.096
95.501	159.839	80.059	19.974	100.600	20.137	5.596	0.983	899.059
96.001	160.375	80.059	19.974	100.605	20.131	6.098	1.007	899.068
96.501	160.972	80.055	19.976	100.610	20.138	5.579	1.132	899.123
97.002	161.444	80.057	19.976	100.613	20.136	5.835	1.068	899.102
97.502	161.961	80.054	19.976	100.614	20.133	6.157	0.989	899.126
98.001	162.448	80.059	19.974	100.619	20.138	5.862	1.004	899.030
98.502	162.953	80.060	19.976	100.621	20.123	7.058	0.992	899.090
99.002	163.471	80.058	19.975	100.619	20.123	6.992	1.023	898.977
99.501	163.971	80.059	19.975	100.614	20.121	7.153	1.018	899.069
100.001	164.463	80.062	19.973	100.614	20.115	7.545	0.992	898.980
100.501	164.946	80.061	19.975	100.610	20.111	7.775	0.975	899.098
101.001	165.535	80.058	19.975	100.609	20.110	7.810	1.072	899.012
101.501	166.004	80.065	19.974	100.614	20.106	8.053	1.057	899.054
102.002	166.573	80.058	19.976	100.621	20.101	8.383	1.038	899.102
102.501	167.102	80.057	19.975	100.622	20.098	8.568	1.099	898.970
103.001	167.606	80.058	19.976	100.621	20.098	8.558	1.033	899.065
103.501	168.134	80.057	19.973	100.618	20.097	8.619	1.032	899.008
104.001	168.644	80.059	19.974	100.613	20.091	9.134	1.038	899.023
104.501	169.177	80.056	19.975	100.603	20.085	9.677	1.042	899.032
105.002	169.668	80.057	19.972	100.594	20.082	9.921	1.024	898.924
105.502	170.123	80.062	19.973	100.592	20.075	10.496	0.946	898.978
106.002	170.665	80.060	19.976	100.591	20.068	11.083	0.998	899.066
106.502	171.135	80.061	19.976	100.592	20.060	11.770	1.012	899.059
107.001	171.668	80.064	19.972	100.596	20.059	11.847	1.003	898.908
107.501	172.162	80.061	19.972	100.602	20.056	12.051	1.027	898.933
108.001	172.747	80.056	19.974	100.607	20.047	12.813	1.079	898.948
108.501	173.168	80.060	19.974	100.614	20.044	13.071	1.005	898.994
109.001	173.718	80.058	19.974	100.616	20.037	13.535	0.971	898.958
109.502	174.213	80.059	19.974	100.618	20.031	14.077	1.044	898.993
110.002	174.711	80.058	19.974	100.622	20.029	14.289	0.993	898.957
110.502	175.221	80.059	19.973	100.620	20.020	15.014	1.010	898.964
111.001	175.746	80.059	19.974	100.618	20.011	15.610	1.036	898.948
111.501	176.233	80.058	19.975	100.618	20.007	15.932	1.011	898.989
112.001	176.750	80.060	19.974	100.612	20.001	16.412	1.004	898.920
112.502	177.228	80.063	19.974	100.608	19.995	16.854	0.995	898.935
113.002	177.770	80.060	19.974	100.605	19.991	17.071	1.020	898.956
113.501	178.331	80.059	19.974	100.599	19.985	17.607	1.103	898.966
114.002	178.802	80.058	19.975	100.599	19.982	17.865	1.031	898.940
114.502	179.325	80.059	19.974	100.603	19.977	18.216	0.994	898.949
115.002	179.874	80.058	19.975	100.599	19.972	18.628	1.072	898.953
115.502	180.372	80.059	19.976	100.597	19.966	19.058	1.047	898.944
116.002	180.852	80.061	19.975	100.598	19.960	19.593	0.978	898.972
116.502	181.390	80.061	19.975	100.596	19.957	19.856	1.018	898.947
117.002	181.888	80.059	19.976	100.590	19.950	20.442	1.037	898.965
117.502	182.423	80.061	19.976	100.586	19.944	21.041	1.032	898.929
118.002	182.898	80.063	19.975	100.589	19.939	21.439	1.010	898.929
118.502	183.403	80.060	19.975	100.592	19.934	21.835	0.980	898.934
119.002	183.918	80.059	19.974	100.592	19.928	22.353	1.020	898.943
119.502	184.427	80.058	19.975	100.595	19.927	22.500	1.024	898.919
120.002	184.939	80.058	19.975	100.596	19.920	23.079	1.021	898.937
120.501	185.464	80.058	19.975	100.595	19.913	23.728	1.038	898.928
121.002	185.959	80.058	19.975	100.591	19.911	23.898	1.020	898.914
121.502	186.491	80.060	19.975	100.593	19.909	24.162	1.027	898.900
122.002	186.978	80.058	19.975	100.595	19.902	24.667	1.019	898.905
122.502	187.508	80.058	19.975	100.594	19.900	24.755	1.017	898.914
123.002	187.996	80.061	19.976	100.592	19.900	24.729	1.018	898.908
123.501	188.532	80.062	19.975	100.590	19.899	24.718	1.024	898.866
124.001	189.045	80.063	19.975	100.584	19.892	25.275	1.049	898.889
124.502	189.551	80.061	19.974	100.576	19.893	25.208	1.019	898.898
125.001	190.062	80.059	19.975	100.572	19.894	25.159	1.016	898.868
125.502	190.589	80.062	19.975	100.569	19.894	25.206	1.039	898.883
126.002	191.081	80.060	19.975	100.569	19.891	25.514	1.019	898.909
126.502	191.602	80.059	19.975	100.565	19.888	25.724	1.013	898.873
127.002	192.073	80.060	19.975	100.562	19.892	25.535	0.990	898.904
127.503	192.600	80.059	19.974	100.556	19.888	25.888	0.998	898.869
128.002	193.123	80.059	19.975	100.549	19.891	25.718	1.051	898.828
128.502	193.618	80.062	19.975	100.542	19.893	25.573	1.018	898.864
129.002	194.122	80.062	19.975	100.540	19.893	25.551	0.999	898.861
129.502	194.639	80.060	19.975	100.542	19.897	25.243	1.021	898.845
130.002	195.156	80.058	19.975	100.549	19.899	25.034	1.034	898.846
130.502	195.651	80.057	19.974	100.555	19.900	24.880	1.012	898.820
131.002	196.169	80.059	19.975	100.557	19.902	24.789	1.013	898.824
131.502	196.690	80.058	19.974	100.557	19.905	24.532	1.039	898.862
132.002	197.177	80.057	19.974	100.557	19.912	24.028	1.008	898.881
132.502	197.698	80.060	19.975	100.550	19.918	23.611	1.009	898.859
133.002	198.234	80.058	19.974	100.543	19.920	23.535	1.057	898.840
133.502	198.755	80.056	19.975	100.542	19.925	23.222	1.056	898.832
134.002	199.257	80.059	19.975	100.540	19.932	22.618	1.023	898.825
134.502	199.750	80.060	19.975	100.535	19.937	22.159	0.996	898.841
135.002	200.260	80.061	19.975	100.531	19.941	21.756	1.003	898.837
135.502	200.770	80.058	19.974	100.531	19.946	21.374	1.019	898.834
136.002	201.281	80.058	19.974	100.528	19.957	20.520	1.020	898.847
136.503	201.800	80.060	19.975	100.530	19.960	20.270	1.030	898.880
137.002	202.290	80.058	19.974	100.532	19.966	19.849	1.010	898.793
137.502	202.802	80.057	19.975	100.539	19.972	19.435	1.003	898.822
138.002	203.309	80.059	19.976	100.540	19.982	18.678	1.020	898.830
138.501	203.830	80.056	19.975	100.538	19.990	18.031	1.028	898.821
139.002	204.346	80.058	19.976	100.531	19.996	17.466	1.036	898.794
139.502	204.845	80.061	19.977	100.532	19.999	17.231	1.015	898.823
140.002	205.363	80.057	19.976	100.527	20.009	16.393	1.017	898.807
140.502	205.871	80.056	19.974	100.524	20.015	15.863	1.026	898.803
141.002	206.354	80.057	19.974	100.524	20.024	15.154	0.992	898.772
141.501	206.868	80.057	19.974	100.529	20.027	14.970	0.996	898.795
142.002	207.420	80.058	19.975	100.532	20.034	14.406	1.065	898.761
142.502	207.919	80.055	19.975	100.538	20.042	13.797	1.051	898.788
143.002	208.386	80.056	19.974	100.543	20.053	13.001	0.966	898.810
143.501	208.884	80.059	19.975	100.545	20.060	12.428	0.965	898.820
144.002	209.433	80.057	19.974	100.540	20.068	11.816	1.046	898.766
144.502	209.954	80.059	19.974	100.536	20.072	11.393	1.069	898.794
145.003	210.441	80.060	19.976	100.532	20.082	10.585	1.008	898.820
145.502	210.946	80.060	19.974	100.532	20.088	10.089	0.994	898.750
146.002	211.517	80.058	19.975	100.539	20.094	9.618	1.075	898.738
146.502	211.994	80.059	19.974	100.547	20.099	9.136	1.047	898.758
147.002	212.488	80.058	19.974	100.549	20.106	8.580	0.971	898.782
147.502	212.983	80.059	19.974	100.552	20.110	8.314	0.990	898.778
148.002	213.522	80.058	19.974	100.554	20.117	7.753	1.034	898.760
148.502	214.043	80.058	19.973	100.553	20.118	7.592	1.059	898.751
149.002	214.556	80.059	19.974	100.553	20.126	6.927	1.033	898.770
149.502	215.014	80.057	19.973	100.553	20.126	6.924	0.971	898.703
150.003	215.531	80.058	19.973	100.552	20.133	6.381	0.975	898.725
150.503	216.036	80.061	19.975	100.551	20.133	6.453	1.022	898.712
151.002	216.569	80.059	19.974	100.549	20.136	6.215	1.040	898.720
151.502	217.046	80.060	19.975	100.554	20.147	5.446	1.011	898.783
152.002	217.555	80.058	19.974	100.562	20.147	5.514	0.985	898.725
152.502	218.097	80.057	19.974	100.567	20.147	5.534	1.050	898.742
153.002	218.595	80.057	19.974	100.570	20.147	5.565	1.040	898.747
153.502	219.091	80.057	19.974	100.571	20.152	5.203	0.994	898.748
154.002	219.590	80.061	19.973	100.571	20.154	5.062	0.995	898.741
154.502	220.120	80.062	19.974	100.571	20.152	5.144	1.030	898.728
155.002	220.620	80.061	19.974	100.575	20.158	4.744	1.030	898.748
155.502	221.126	80.062	19.973	100.578	20.159	4.678	1.005	898.749
156.002	221.649	80.062	19.975	100.583	20.160	4.589	1.028	898.758
156.502	222.183	80.061	19.975	100.584	20.165	4.208	1.057	898.743
157.002	222.687	80.059	19.974	100.585	20.165	4.322	1.039	898.723
157.502	223.136	80.058	19.974	100.581	20.164	4.426	0.954	898.746
158.002	223.702	80.057	19.974	100.581	20.168	4.068	1.015	898.739
158.502	224.174	80.059	19.974	100.580	20.163	4.548	1.039	898.719
159.002	224.668	80.059	19.974	100.574	20.166	4.309	0.966	898.713
159.502	225.167	80.061	19.973	100.570	20.164	4.513	0.992	898.748
160.003	225.722	80.058	19.974	100.566	20.163	4.533	1.053	898.737
160.503	226.186	80.059	19.974	100.562	20.166	4.352	1.019	898.729
161.002	226.679	80.062	19.973	100.561	20.166	4.306	0.958	898.731
161.502	227.238	80.061	19.974	100.567	20.166	4.289	1.051	898.714
162.003	227.704	80.060	19.974	100.567	20.163	4.468	1.023	898.685
162.503	228.228	80.059	19.974	100.566	20.165	4.414	0.990	898.711
163.003	228.731	80.059	19.974	100.567	20.164	4.582	1.029	898.685
163.502	229.241	80.060	19.973	100.566	20.165	4.585	1.014	898.693
164.002	229.741	80.060	19.973	100.561	20.164	4.666	1.010	898.684
164.502	230.223	80.060	19.974	100.557	20.167	4.475	0.982	898.693
165.002	230.754	80.060	19.974	100.559	20.164	4.761	1.012	898.697
165.502	231.242	80.061	19.973	100.557	20.165	4.643	1.020	898.684
166.002	231.760	80.060	19.974	100.552	20.166	4.580	1.005	898.695
166.503	232.256	80.061	19.973	100.548	20.166	4.609	1.013	898.689
167.003	232.742	80.060	19.973	100.550	20.166	4.693	0.983	898.692
167.502	233.265	80.059	19.974	100.552	20.167	4.627	1.008	898.668
168.003	233.784	80.058	19.974	100.551	20.165	4.817	1.041	898.673
168.503	234.265	80.059	19.974	100.555	20.165	4.776	1.001	898.666
169.003	234.731	80.061	19.973	100.555	20.166	4.703	0.947	898.683
169.502	235.237	80.060	19.973	100.555	20.165	4.755	0.971	898.661
170.003	235.764	80.059	19.974	100.547	20.166	4.674	1.033	898.648
170.503	236.252	80.059	19.973	100.542	20.167	4.677	1.015	898.671
171.003	236.776	80.058	19.973	100.535	20.167	4.675	1.013	898.650
171.502	237.315	80.057	19.974	100.537	20.169	4.534	1.063	898.653
172.002	237.783	80.060	19.973	100.534	20.169	4.627	1.007	898.627
172.502	238.291	80.057	19.973	100.534	20.169	4.585	0.976	898.639
173.002	238.799	80.059	19.975	100.536	20.167	4.745	1.015	898.661
173.503	239.295	80.055	19.974	100.537	20.165	4.862	1.004	898.632
174.003	239.796	80.057	19.974	100.529	20.166	4.781	0.997	898.670
174.503	240.306	80.059	19.974	100.525	20.171	4.390	1.012	898.600
175.002	240.788	80.058	19.974	100.525	20.168	4.679	0.992	898.654
175.502	241.302	80.055	19.974	100.523	20.167	4.728	0.995	898.642
176.002	241.838	80.060	19.974	100.521	20.164	5.020	1.050	898.618
176.503	242.329	80.059	19.973	100.529	20.166	4.907	1.027	898.643
177.003	242.827	80.060	19.974	100.531	20.169	4.787	0.989	898.579
177.503	243.340	80.061	19.974	100.524	20.172	4.607	1.012	898.602
178.002	243.822	80.062	19.973	100.522	20.173	4.551	0.996	898.614
178.503	244.316	80.060	19.975	100.521	20.174	4.508	0.975	898.639
179.003	244.838	80.059	19.976	100.516	20.171	4.724	1.015	898.661
179.503	245.321	80.060	19.975	100.513	20.174	4.509	1.005	898.644
180.003	245.859	80.060	19.974	100.519	20.175	4.378	1.021	898.642
180.503	246.362	80.059	19.975	100.521	20.171	4.645	1.041	898.632
181.003	246.852	80.059	19.975	100.521	20.175	4.291	0.994	898.623
181.502	247.380	80.060	19.975	100.521	20.176	4.180	1.018	898.614
182.002	247.905	80.059	19.974	100.521	20.177	4.057	1.053	898.648
182.503	248.390	80.060	19.975	100.517	20.174	4.322	1.009	898.586
183.004	248.883	80.061	19.975	100.516	20.174	4.158	0.977	898.611
183.503	249.394	80.057	19.974	100.514	20.174	4.160	1.005	898.591
184.002	249.907	80.056	19.974	100.506	20.177	3.987	1.025	898.641
184.502	250.389	80.056	19.974	100.500	20.176	4.156	0.995	898.601
185.003	250.917	80.057	19.974	100.497	20.177	4.110	1.009	898.602
185.503	251.426	80.058	19.974	100.494	20.181	3.817	1.037	898.635
186.003	251.914	80.057	19.973	100.493	20.179	4.033	0.997	898.607
186.503	252.434	80.057	19.974	100.499	20.178	4.220	1.009	898.614
187.002	252.946	80.058	19.975	100.502	20.176	4.337	1.032	898.616
187.502	253.468	80.059	19.974	100.503	20.183	3.775	1.033	898.622
188.003	253.933	80.061	19.975	100.504	20.182	3.795	0.987	898.611
188.503	254.429	80.062	19.975	100.507	20.182	3.812	0.960	898.589
189.004	254.942	80.060	19.974	100.509	20.184	3.615	1.009	898.624
189.503	255.422	80.060	19.974	100.512	20.179	4.013	0.994	898.618
190.003	255.935	80.060	19.974	100.515	20.184	3.675	0.994	898.626
190.503	256.463	80.060	19.974	100.521	20.182	3.834	1.042	898.602
191.002	256.936	80.060	19.974	100.519	20.184	3.767	1.000	898.620
191.503	257.452	80.057	19.974	100.514	20.183	3.935	0.987	898.590
192.003	257.949	80.057	19.974	100.510	20.186	3.683	1.013	898.606
192.503	258.457	80.057	19.974	100.509	20.186	3.678	1.005	898.615
193.003	258.970	80.055	19.974	100.503	20.187	3.579	1.022	898.592
193.503	259.467	80.056	19.975	100.499	20.186	3.643	1.011	898.610
194.002	259.985	80.055	19.974	100.497	20.186	3.640	1.014	898.604
194.503	260.475	80.055	19.973	100.498	20.181	3.916	1.008	898.581
195.003	260.942	80.056	19.975	100.498	20.184	3.669	0.958	898.597
195.503	261.464	80.055	19.975	100.502	20.181	3.907	0.988	898.585
196.003	261.962	80.057	19.974	100.504	20.181	3.937	1.019	898.557
196.503	262.495	80.057	19.974	100.507	20.178	4.187	1.030	898.626
197.003	263.001	80.056	19.974	100.502	20.180	4.084	1.039	898.596
197.503	263.473	80.057	19.974	100.500	20.185	3.630	0.979	898.611
198.003	263.996	80.057	19.975	100.495	20.182	3.826	0.995	898.586
198.503	264.500	80.057	19.974	100.492	20.184	3.700	1.026	898.587
199.003	264.989	80.059	19.974	100.489	20.183	3.750	0.993	898.596
199.503	265.472	80.058	19.975	100.489	20.183	3.791	0.972	898.574
200.003	266.017	80.057	19.975	100.489	20.184	3.744	1.027	898.569
200.503	266.531	80.056	19.975	100.489	20.181	3.993	1.060	898.577
201.003	267.015	80.056	19.975	100.494	20.178	4.189	0.999	898.598
201.503	267.527	80.058	19.974	100.497	20.181	3.880	0.996	898.579
202.003	268.016	80.057	19.975	100.501	20.177	4.115	1.001	898.610
202.503	268.495	80.055	19.975	100.502	20.176	4.140	0.967	898.636
203.003	269.037	80.058	19.974	100.500	20.175	4.133	1.020	898.578
203.503	269.490	80.056	19.975	100.494	20.173	4.321	0.994	898.604
204.004	269.997	80.056	19.975	100.494	20.171	4.492	0.960	898.607
204.503	270.514	80.059	19.973	100.495	20.169	4.687	1.026	898.582
205.002	271.044	80.059	19.974	100.498	20.166	4.932	1.047	898.558
205.503	271.488	80.057	19.974	100.504	20.168	4.824	0.973	898.591
206.004	272.004	80.057	19.974	100.504	20.164	5.090	0.961	898.552
206.503	272.496	80.057	19.975	100.502	20.161	5.359	1.009	898.559
207.003	272.985	80.057	19.974	100.497	20.158	5.611	0.981	898.529
207.504	273.485	80.059	19.974	100.493	20.157	5.733	0.987	898.583
208.004	274.003	80.059	19.974	100.491	20.156	5.782	1.018	898.572
208.504	274.502	80.059	19.973	100.499	20.153	5.952	1.018	898.560
209.003	275.016	80.058	19.974	100.507	20.146	6.537	1.013	898.597
209.503	275.498	80.060	19.974	100.514	20.145	6.648	0.996	898.578
210.003	275.982	80.060	19.973	100.517	20.140	7.001	0.967	898.556
210.503	276.495	80.061	19.974	100.517	20.141	6.948	0.997	898.553
211.004	277.005	80.062	19.974	100.511	20.136	7.316	1.022	898.602
211.504	277.504	80.059	19.973	100.508	20.137	7.315	1.010	898.558
212.003	277.996	80.059	19.974	100.507	20.133	7.692	0.993	898.545
212.503	278.486	80.060	19.974	100.508	20.130	7.861	0.982	898.591
213.003	279.021	80.058	19.974	100.507	20.127	8.044	1.024	898.569
213.503	279.479	80.059	19.973	100.508	20.125	8.162	0.993	898.573
214.003	280.013	80.060	19.973	100.508	20.119	8.637	0.992	898.565
214.503	280.489	80.058	19.974	100.504	20.115	8.885	1.010	898.559
215.003	280.980	80.060	19.975	100.503	20.113	9.007	0.967	898.569
215.503	281.517	80.061	19.974	100.504	20.109	9.378	1.028	898.542
216.003	281.993	80.059	19.975	100.506	20.101	10.008	1.013	898.571
216.503	282.499	80.060	19.975	100.506	20.095	10.469	0.983	898.569
217.003	283.030	80.058	19.975	100.506	20.093	10.654	1.037	898.614
217.503	283.491	80.059	19.974	100.502	20.086	11.159	0.991	898.588
218.004	284.016	80.060	19.975	100.501	20.080	11.658	0.985	898.570
218.504	284.530	80.059	19.974	100.499	20.077	11.837	1.038	898.548
219.004	285.027	80.060	19.974	100.494	20.074	12.064	1.010	898.587
219.504	285.525	80.060	19.973	100.494	20.067	12.596	0.996	898.588
220.003	286.022	80.060	19.974	100.497	20.062	13.024	0.995	898.573
220.504	286.512	80.060	19.975	100.500	20.059	13.253	0.987	898.564
221.004	287.008	80.061	19.974	100.500	20.051	13.787	0.987	898.570
221.503	287.532	80.060	19.974	100.504	20.046	14.132	1.019	898.568
222.004	288.023	80.060	19.974	100.507	20.041	14.551	1.014	898.576
222.504	288.529	80.057	19.973	100.510	20.033	15.118	0.997	898.565
223.004	289.017	80.057	19.974	100.504	20.024	15.739	0.994	898.564
223.503	289.534	80.058	19.974	100.499	20.019	16.112	1.006	898.571
224.003	290.039	80.059	19.974	100.500	20.012	16.736	1.023	898.527
224.503	290.553	80.060	19.973	100.500	20.006	17.206	1.018	898.558
225.003	291.021	80.061	19.972	100.497	20.001	17.708	0.982	898.578
225.503	291.563	80.059	19.973	100.501	19.994	18.242	1.011	898.565
226.003	292.048	80.060	19.974	100.504	19.987	18.807	1.028	898.540
226.503	292.535	80.061	19.973	100.504	19.981	19.312	0.972	898.558
227.003	293.031	80.060	19.973	100.501	19.975	19.753	0.983	898.583
227.503	293.538	80.059	19.974	100.502	19.968	20.284	1.003	898.551
228.003	294.050	80.057	19.974	100.502	19.958	21.082	1.019	898.568
228.503	294.562	80.060	19.974	100.506	19.951	21.597	1.023	898.551
229.003	295.064	80.061	19.974	100.508	19.948	21.852	1.014	898.603
229.503	295.581	80.059	19.974	100.510	19.942	22.342	1.019	898.623
230.003	296.085	80.060	19.975	100.512	19.931	23.094	1.021	898.552
230.503	296.585	80.060	19.974	100.514	19.923	23.724	1.003	898.582
231.003	297.083	80.060	19.974	100.511	19.917	24.139	0.998	898.570
231.503	297.577	80.061	19.974	100.509	19.912	24.643	0.992	898.617
232.003	298.074	80.061	19.973	100.506	19.908	24.962	0.991	898.550
232.503	298.582	80.061	19.973	100.501	19.901	25.617	1.005	898.550
233.004	299.098	80.060	19.974	100.497	19.894	26.162	1.023	898.582
233.504	299.576	80.058	19.973	100.495	19.889	26.562	0.993	898.552
234.004	300.086	80.058	19.973	100.495	19.882	27.167	0.988	898.608
234.504	300.558	80.058	19.974	100.497	19.874	27.723	0.983	898.596
235.004	301.054	80.059	19.975	100.499	19.868	28.153	0.969	898.572
235.504	301.577	80.060	19.975	100.495	19.862	28.575	1.019	898.598
236.003	302.093	80.059	19.974	100.495	19.860	28.757	1.039	898.609
236.503	302.586	80.057	19.974	100.491	19.848	29.633	1.010	898.581
237.003	303.095	80.061	19.975	100.493	19.844	29.944	1.001	898.550
237.504	303.585	80.060	19.974	100.496	19.836	30.595	0.998	898.568
238.004	304.093	80.059	19.973	100.499	19.837	30.603	0.998	898.543
238.504	304.564	80.058	19.974	100.498	19.829	31.183	0.979	898.573
239.004	305.100	80.057	19.974	100.495	19.822	31.761	1.007	898.597
239.504	305.592	80.059	19.974	100.485	19.821	31.970	1.029	898.553
240.003	306.056	80.057	19.975	100.479	19.815	32.411	0.956	898.557
240.503	306.605	80.058	19.974	100.476	19.814	32.442	1.012	898.560
241.004	307.100	80.060	19.974	100.475	19.806	33.019	1.043	898.573
241.504	307.589	80.059	19.974	100.477	19.803	33.303	0.985	898.566
242.003	308.092	80.060	19.974	100.482	19.798	33.679	0.993	898.575
242.503	308.608	80.061	19.975	100.483	19.793	34.007	1.019	898.573
243.003	309.107	80.060	19.975	100.482	19.787	34.484	1.014	898.573
243.503	309.561	80.059	19.974	100.481	19.782	34.968	0.953	898.623
244.003	310.085	80.057	19.974	100.483	19.780	35.078	0.978	898.587
244.503	310.590	80.056	19.974	100.483	19.775	35.260	1.028	898.615
245.004	311.090	80.058	19.974	100.478	19.771	35.531	1.005	898.615
245.504	311.608	80.059	19.974	100.475	19.768	35.801	1.019	898.606
246.004	312.085	80.059	19.975	100.475	19.768	35.739	0.996	898.575
246.503	312.590	80.060	19.974	100.471	19.762	36.162	0.982	898.589
247.003	313.093	80.057	19.974	100.465	19.757	36.602	1.007	898.605
247.503	313.588	80.061	19.974	100.469	19.754	36.826	0.998	898.579
248.003	314.136	80.061	19.974	100.471	19.751	37.036	1.043	898.582
248.503	314.594	80.060	19.975	100.469	19.751	36.943	1.006	898.584
249.004	315.115	80.059	19.974	100.466	19.743	37.579	0.979	898.583
249.504	315.588	80.059	19.974	100.469	19.741	37.622	0.994	898.588
250.003	316.115	80.059	19.974	100.469	19.738	37.768	1.000	898.586
250.504	316.605	80.060	19.974	100.466	19.733	38.027	1.016	898.628
251.005	317.131	80.058	19.974	100.465	19.731	38.217	1.016	898.618
251.504	317.611	80.062	19.976	100.473	19.723	38.741	1.007	898.618
252.004	318.129	80.061	19.975	100.482	19.719	39.003	0.998	898.615
252.504	318.596	80.058	19.975	100.482	19.714	39.426	0.986	898.608
253.004	319.144	80.060	19.974	100.485	19.710	39.728	1.015	898.634
253.504	319.605	80.061	19.974	100.492	19.703	40.253	1.008	898.599
254.005	320.117	80.060	19.975	100.488	19.696	40.756	0.973	898.602
254.504	320.644	80.060	19.975	100.481	19.690	41.121	1.039	898.652
255.004	321.121	80.057	19.975	100.485	19.683	41.680	1.003	898.640
255.504	321.605	80.058	19.975	100.490	19.671	42.542	0.962	898.597
256.004	322.112	80.060	19.975	100.489	19.661	43.202	0.991	898.625
256.504	322.626	80.058	19.975	100.495	19.655	43.651	1.021	898.666
257.004	323.105	80.060	19.975	100.503	19.645	44.358	0.994	898.641
257.504	323.590	80.060	19.975	100.507	19.633	45.256	0.964	898.650
258.004	324.141	80.057	19.974	100.511	19.624	45.912	1.037	898.666
258.503	324.613	80.057	19.974	100.515	19.617	46.432	1.023	898.661
259.004	325.123	80.059	19.974	100.517	19.600	47.708	0.982	898.635
259.504	325.626	80.057	19.974	100.519	19.587	48.685	1.014	898.610
260.003	326.120	80.055	19.974	100.516	19.576	49.564	0.997	898.661
260.504	326.654	80.056	19.974	100.514	19.553	51.190	1.028	898.639
261.004	327.127	80.057	19.975	100.522	19.543	51.861	1.006	898.654
261.504	327.597	80.056	19.974	100.524	19.527	53.076	0.942	898.681
262.004	328.130	80.056	19.974	100.525	19.509	54.461	1.003	898.639
262.504	328.614	80.057	19.975	100.530	19.493	55.624	1.018	898.692
263.004	329.139	80.057	19.975	100.533	19.471	57.288	1.010	898.709
263.504	329.637	80.057	19.974	100.533	19.451	58.852	1.023	898.682
264.004	330.135	80.059	19.974	100.538	19.430	60.507	0.995	898.707
264.504	330.659	80.058	19.973	100.541	19.409	62.163	1.021	898.710
265.005	331.129	80.057	19.974	100.544	19.388	63.747	0.994	898.693
265.504	331.638	80.057	19.974	100.547	19.362	65.694	0.979	898.673
266.004	332.109	80.055	19.973	100.548	19.337	67.466	0.979	898.721
266.505	332.618	80.057	19.974	100.550	19.311	69.399	0.979	898.693
267.005	333.108	80.057	19.973	100.549	19.285	71.221	1.000	898.699
267.504	333.613	80.058	19.973	100.549	19.257	73.288	0.996	898.727
268.004	334.128	80.059	19.974	100.557	19.231	75.236	1.020	898.722
268.504	334.661	80.058	19.974	100.561	19.206	77.195	1.047	898.739
269.004	335.130	80.058	19.974	100.562	19.179	79.281	1.002	898.713
269.504	335.608	80.059	19.974	100.566	19.147	81.638	0.948	898.724
270.003	336.136	80.057	19.973	100.570	19.113	84.241	1.007	898.754
270.504	336.652	80.057	19.974	100.566	19.081	86.689	1.044	898.741
271.004	337.157	80.055	19.974	100.562	19.050	89.037	1.021	898.749
271.503	337.648	80.056	19.974	100.557	19.014	91.760	0.997	898.748
272.003	338.144	80.059	19.974	100.557	18.980	94.317	0.986	898.750
272.504	338.633	80.055	19.974	100.559	18.940	97.440	0.984	898.722
273.004	339.147	80.055	19.973	100.562	18.905	100.120	1.002	898.750
273.505	339.640	80.058	19.974	100.570	18.872	102.654	1.007	898.765
274.004	340.137	80.059	19.974	100.581	18.837	105.279	0.991	898.744
274.504	340.612	80.060	19.974	100.589	18.801	108.047	0.971	898.755
275.004	341.124	80.061	19.974	100.592	18.763	110.931	0.987	898.767
275.504	341.646	80.059	19.973	100.593	18.725	113.846	1.034	898.764
276.005	342.125	80.056	19.973	100.592	18.688	116.671	1.000	898.768
276.505	342.616	80.057	19.974	100.589	18.646	119.892	0.970	898.765
277.004	343.128	80.056	19.973	100.590	18.605	123.057	1.003	898.803
277.504	343.632	80.057	19.974	100.593	18.561	126.405	1.016	898.798
278.004	344.125	80.057	19.974	100.592	18.525	129.254	0.997	898.781
278.504	344.608	80.057	19.974	100.593	18.485	132.390	0.976	898.773
279.004	345.130	80.058	19.974	100.595	18.440	135.864	1.006	898.801
279.504	345.602	80.055	19.974	100.593	18.399	139.037	0.993	898.801
280.005	346.100	80.057	19.973	100.588	18.358	142.103	0.969	898.785
280.505	346.583	80.057	19.974	100.588	18.309	145.783	0.981	898.800
281.005	347.113	80.056	19.974	100.589	18.265	149.055	1.014	898.806
281.504	347.594	80.057	19.974	100.589	18.219	152.404	1.012	898.777
282.004	348.071	80.055	19.974	100.588	18.177	155.592	0.957	898.820
282.504	348.598	80.056	19.974	100.589	18.132	159.030	1.004	898.841
283.004	349.118	80.058	19.974	100.590	18.089	162.315	1.048	898.834
283.504	349.573	80.056	19.975	100.586	18.044	165.691	0.974	898.821
284.005	350.105	80.057	19.974	100.585	17.995	169.444	0.987	898.822
284.505	350.590	80.058	19.975	100.583	17.949	172.960	1.017	898.828
285.004	351.100	80.056	19.976	100.578	17.906	176.240	0.995	898.841
285.504	351.577	80.058	19.975	100.570	17.860	179.700	0.987	898.843
286.004	352.099	80.060	19.975	100.561	17.814	183.219	0.999	898.848
286.505	352.579	80.058	19.974	100.553	17.766	186.837	1.001	898.845
287.004	353.101	80.059	19.974	100.553	17.718	190.447	1.002	898.812
287.504	353.581	80.059	19.974	100.557	17.671	193.964	1.002	898.831
288.004	354.082	80.059	19.974	100.564	17.625	197.472	0.981	898.874
288.504	354.602	80.061	19.974	100.571	17.582	200.668	1.021	898.894
289.004	355.105	80.059	19.974	100.578	17.535	204.185	1.024	898.893
289.504	355.549	80.058	19.973	100.576	17.493	207.423	0.946	898.858
290.005	356.090	80.058	19.974	100.573	17.445	211.098	0.984	898.869
290.505	356.592	80.056	19.975	100.571	17.401	214.555	1.044	898.899
291.005	357.056	80.057	19.974	100.569	17.351	218.349	0.966	898.861
291.505	357.565	80.057	19.973	100.567	17.307	221.730	0.973	898.872
292.004	358.022	80.056	19.974	100.567	17.260	225.305	0.966	898.886
292.504	358.501	80.057	19.973	100.568	17.220	228.343	0.936	898.886
293.004	359.040	80.058	19.974	100.565	17.171	231.997	1.017	898.921
293.505	359.521	80.058	19.973	100.561	17.137	234.505	1.019	898.895
294.005	360.027	80.060	19.973	100.558	17.093	237.830	0.987	898.939
294.505	360.491	80.059	19.974	100.562	17.052	240.902	0.971	898.896
295.004	361.010	80.058	19.974	100.565	17.012	243.828	0.984	898.902
295.504	361.503	80.058	19.974	100.567	16.973	246.736	1.012	898.910
296.004	362.019	80.057	19.975	100.571	16.935	249.593	1.009	898.915
296.504	362.491	80.058	19.975	100.570	16.890	253.007	0.988	898.913
297.004	362.993	80.057	19.975	100.562	16.857	255.488	0.974	898.905
297.504	363.530	80.055	19.974	100.555	16.816	258.502	1.038	898.915
298.005	363.967	80.054	19.974	100.546	16.784	260.882	0.973	898.936
298.505	364.495	80.055	19.974	100.541	16.749	263.613	0.965	898.931
299.004	364.968	80.058	19.973	100.538	16.711	266.367	1.002	898.925
299.505	365.482	80.057	19.973	100.536	16.680	268.699	0.987	898.902
300.005	365.965	80.057	19.973	100.537	16.648	271.000	0.997	898.958
300.504	366.480	80.060	19.974	100.542	16.617	273.270	0.999	898.904
301.004	366.961	80.059	19.973	100.544	16.587	275.412	0.997	898.932
301.504	367.500	80.059	19.974	100.544	16.559	277.356	1.019	898.936
302.004	367.976	80.062	19.975	100.544	16.530	279.397	1.014	898.970
302.505	368.450	80.060	19.974	100.545	16.503	281.307	0.949	898.937
303.005	368.981	80.058	19.973	100.550	16.476	283.178	1.006	898.929
303.505	369.448	80.059	19.972	100.551	16.445	285.413	0.999	898.980
304.004	369.940	80.060	19.972	100.551	16.414	287.623	0.959	898.970
304.505	370.454	80.061	19.974	100.554	16.379	290.126	1.006	898.960
305.005	370.955	80.060	19.973	100.554	16.347	292.344	1.015	899.008
305.505	371.459	80.057	19.973	100.547	16.322	294.130	1.004	899.002
306.005	371.964	80.059	19.972	100.547	16.296	295.966	1.008	898.969
306.505	372.404	80.058	19.972	100.554	16.265	298.259	0.946	899.000
307.005	372.970	80.060	19.973	100.559	16.225	301.283	1.007	899.001
307.504	373.421	80.061	19.974	100.561	16.182	304.678	1.018	899.017
308.004	373.932	80.061	19.974	100.569	16.147	307.477	0.962	899.027
308.504	374.429	80.060	19.973	100.581	16.121	309.551	1.007	899.012
309.005	374.906	80.060	19.973	100.595	16.085	312.361	0.973	899.033
309.505	375.408	80.056	19.973	100.607	16.031	316.525	0.979	899.036
310.004	375.917	80.058	19.974	100.622	15.964	321.599	1.011	899.039
310.504	376.405	80.059	19.974	100.632	15.905	326.177	0.997	899.081
311.005	376.946	80.059	19.974	100.636	15.866	329.178	1.029	899.040
311.505	377.444	80.060	19.975	100.643	15.845	330.874	1.039	899.045
312.005	377.937	80.059	19.974	100.657	15.837	331.507	0.992	899.043
312.505	378.414	80.060	19.974	100.671	15.836	331.676	0.971	899.043
313.004	378.918	80.061	19.975	100.682	15.840	331.376	0.981	899.037
313.505	379.422	80.058	19.974	100.694	15.844	330.963	1.007	899.065
314.005	379.906	80.057	19.974	100.690	15.841	330.985	0.989	899.039
314.504	380.402	80.054	19.974	100.678	15.831	331.634	0.980	899.084
315.004	380.930	80.055	19.974	100.660	15.817	332.636	1.023	899.090
315.505	381.379	80.057	19.974	100.645	15.791	334.485	0.977	899.072
316.005	381.884	80.056	19.974	100.637	15.754	337.385	0.954	899.077
316.505	382.366	80.055	19.973	100.629	15.713	340.679	0.988	899.065
317.005	382.917	80.057	19.975	100.619	15.690	342.605	1.033	899.067
317.504	383.417	80.058	19.974	100.611	15.686	343.073	1.051	899.079
318.005	383.895	80.059	19.973	100.600	15.688	342.966	0.977	899.085
318.505	384.375	80.060	19.974	100.584	15.692	342.732	0.958	899.110
319.004	384.905	80.060	19.973	100.574	15.695	342.321	1.011	899.099
319.504	385.374	80.058	19.974	100.571	15.692	342.362	1.000	899.096
320.004	385.849	80.057	19.974	100.567	15.698	341.731	0.944	899.104
320.505	386.361	80.059	19.973	100.574	15.711	340.656	0.986	899.132
321.005	386.864	80.059	19.974	100.586	15.731	338.966	1.015	899.107
321.505	387.370	80.059	19.974	100.600	15.745	337.696	1.009	899.095
322.004	387.864	80.059	19.973	100.610	15.749	337.082	0.999	899.143
322.505	388.370	80.060	19.974	100.621	15.736	337.820	1.000	899.139
323.005	388.876	80.056	19.974	100.622	15.722	338.803	1.012	899.126
323.505	389.382	80.058	19.974	100.598	15.727	338.271	1.012	899.128
324.005	389.878	80.058	19.975	100.573	15.753	336.154	1.002	899.144
324.504	390.353	80.056	19.975	100.554	15.778	334.271	0.970	899.138
325.005	390.862	80.055	19.974	100.536	15.786	333.669	0.984	899.134
325.505	391.383	80.055	19.974	100.533	15.787	333.499	1.031	899.160
326.005	391.897	80.057	19.974	100.546	15.794	332.551	1.035	899.144
326.505	392.425	80.057	19.975	100.563	15.796	332.081	1.042	899.179
327.004	392.879	80.055	19.975	100.581	15.786	332.738	0.982	899.138
327.505	393.387	80.056	19.975	100.600	15.765	334.382	0.962	899.156
328.005	393.899	80.057	19.975	100.608	15.746	335.825	1.020	899.172
328.506	394.408	80.055	19.975	100.624	15.743	336.111	1.020	899.162
329.005	394.869	80.059	19.975	100.648	15.751	335.807	0.970	899.186
329.505	395.387	80.060	19.975	100.675	15.758	335.554	0.979	899.180
330.005	395.886	80.057	19.976	100.694	15.776	334.354	1.018	899.166
330.505	396.348	80.058	19.975	100.710	15.802	332.504	0.961	899.176
331.005	396.877	80.056	19.975	100.719	15.800	332.809	0.990	899.207
331.505	397.391	80.059	19.975	100.723	15.752	336.799	1.043	899.186
332.005	397.899	80.059	19.975	100.722	15.692	341.718	1.023	899.201
332.505	398.401	80.059	19.975	100.722	15.685	342.840	1.010	899.177
333.005	398.908	80.060	19.974	100.745	15.726	340.332	1.009	899.210
333.505	399.400	80.059	19.975	100.785	15.774	337.046	0.999	899.227
334.005	399.895	80.058	19.976	100.814	15.785	336.454	0.987	899.212
334.505	400.409	80.061	19.975	100.821	15.768	337.829	1.009	899.214
335.005	400.896	80.060	19.975	100.817	15.769	337.760	1.001	899.246
335.505	401.413	80.059	19.975	100.798	15.810	334.709	1.004	899.245
336.005	401.891	80.058	19.975	100.776	15.888	328.865	0.995	899.244
336.505	402.403	80.058	19.975	100.747	15.982	321.868	0.990	899.247
337.005	402.920	80.060	19.975	100.738	16.079	314.636	1.029	899.221
337.504	403.427	80.059	19.975	100.736	16.170	307.671	1.024	899.256
338.005	403.930	80.059	19.975	100.726	16.245	301.832	1.010	899.247
338.505	404.418	80.058	19.975	100.694	16.305	297.047	0.990	899.262
339.005	404.945	80.056	19.975	100.659	16.349	293.438	1.015	899.264
339.505	405.435	80.059	19.975	100.607	16.382	290.776	1.017	899.311
340.005	405.920	80.060	19.974	100.550	16.416	288.181	0.975	899.265
340.505	406.416	80.059	19.975	100.502	16.452	285.633	0.981	899.275
341.004	406.918	80.059	19.976	100.473	16.498	282.329	0.998	899.240
341.504	407.407	80.058	19.975	100.465	16.559	277.866	0.991	899.276
342.005	407.947	80.058	19.974	100.468	16.630	272.654	1.028	899.271
342.505	408.440	80.059	19.974	100.479	16.698	267.513	1.033	899.287
343.005	408.962	80.057	19.975	100.481	16.775	261.651	1.015	899.311
343.506	409.397	80.056	19.976	100.473	16.852	255.685	0.957	899.297
344.005	409.940	80.057	19.974	100.462	16.916	250.739	0.978	899.309
344.505	410.464	80.057	19.975	100.467	16.982	245.695	1.067	899.290
345.005	410.976	80.057	19.976	100.488	17.048	240.675	1.036	899.317
345.505	411.485	80.059	19.975	100.520	17.118	235.364	1.022	899.318
346.005	411.986	80.057	19.974	100.553	17.185	230.298	1.010	899.295
346.505	412.492	80.057	19.975	100.577	17.257	224.971	1.007	899.327
347.005	413.021	80.056	19.975	100.588	17.332	219.363	1.035	899.331
347.505	413.516	80.056	19.975	100.583	17.412	213.376	1.025	899.320
348.005	414.032	80.058	19.974	100.565	17.500	206.645	1.011	899.349
348.505	414.551	80.056	19.974	100.547	17.584	200.238	1.034	899.340
349.006	415.056	80.057	19.975	100.536	17.673	193.379	1.024	899.339
349.506	415.523	80.060	19.975	100.531	17.765	186.216	0.972	899.370
350.006	416.058	80.057	19.974	100.536	17.856	179.090	1.002	899.368
350.506	416.574	80.059	19.975	100.552	17.946	171.992	1.051	899.365
351.006	417.078	80.060	19.974	100.568	18.037	164.883	1.020	899.367
351.505	417.560	80.058	19.973	100.579	18.129	157.777	0.987	899.358
352.005	418.077	80.059	19.975	100.586	18.214	151.099	1.000	899.399
352.505	418.588	80.057	19.974	100.589	18.299	144.433	1.028	899.375
353.005	419.094	80.057	19.974	100.588	18.379	138.118	1.017	899.376
353.505	419.625	80.059	19.974	100.587	18.459	131.889	1.037	899.383
354.005	420.132	80.056	19.973	100.582	18.534	126.012	1.038	899.412
354.505	420.630	80.057	19.974	100.577	18.607	120.238	1.005	899.373
355.005	421.137	80.057	19.974	100.575	18.686	114.083	1.004	899.388
355.505	421.633	80.055	19.973	100.583	18.752	108.794	1.002	899.415
356.005	422.152	80.058	19.974	100.592	18.819	103.476	1.015	899.403
356.505	422.639	80.061	19.974	100.608	18.886	98.215	1.007	899.408
357.005	423.164	80.060	19.974	100.629	18.950	93.141	1.013	899.406
357.505	423.698	80.059	19.975	100.651	19.013	88.247	1.059	899.434
358.005	424.202	80.058	19.974	100.668	19.072	83.602	1.038	899.396
358.505	424.700	80.059	19.974	100.683	19.128	79.346	1.002	899.437
359.005	425.206	80.060	19.974	100.698	19.181	75.275	1.004	899.435
359.505	425.703	80.058	19.974	100.717	19.239	70.918	1.002	899.448
360.006	426.220	80.060	19.975	100.732	19.287	67.268	1.013	899.442
360.506	426.709	80.058	19.975	100.744	19.337	63.543	1.006	899.464
361.005	427.218	80.057	19.974	100.759	19.386	59.808	0.998	899.445
361.506	427.730	80.058	19.975	100.776	19.427	56.751	1.022	899.466
362.005	428.231	80.058	19.975	100.790	19.473	53.275	1.013	899.482
362.505	428.712	80.055	19.975	100.803	19.514	50.197	0.981	899.452
363.006	429.192	80.055	19.975	100.818	19.555	47.203	0.962	899.488
363.505	429.729	80.054	19.975	100.834	19.590	44.614	1.019	899.463
364.005	430.217	80.055	19.975	100.846	19.627	41.837	1.025	899.490
364.505	430.698	80.055	19.975	100.858	19.659	39.470	0.969	899.489
365.005	431.210	80.055	19.974	100.867	19.692	37.057	0.993	899.504
365.505	431.715	80.057	19.974	100.872	19.721	35.080	1.017	899.491
366.005	432.205	80.056	19.975	100.872	19.758	32.420	0.995	899.497
366.505	432.727	80.058	19.974	100.867	19.783	30.761	1.012	899.539
367.005	433.191	80.062	19.975	100.864	19.810	28.888	0.985	899.517
367.505	433.690	80.058	19.975	100.860	19.836	27.039	0.963	899.500
368.005	434.192	80.057	19.975	100.855	19.863	25.202	1.001	899.510
368.505	434.694	80.058	19.975	100.849	19.887	23.395	1.005	899.497
369.005	435.222	80.058	19.976	100.845	19.906	21.981	1.030	899.515
369.505	435.701	80.060	19.975	100.841	19.929	20.299	1.006	899.525
370.005	436.217	80.058	19.974	100.836	19.951	18.673	0.995	899.533
370.506	436.726	80.058	19.974	100.829	19.965	17.756	1.025	899.536
371.006	437.211	80.060	19.974	100.822	19.985	16.320	0.993	899.538
371.506	437.710	80.058	19.975	100.818	20.005	14.891	0.984	899.536
372.005	438.186	80.057	19.974	100.807	20.018	14.071	0.975	899.572
372.505	438.690	80.060	19.974	100.799	20.038	12.689	0.981	899.546
373.005	439.163	80.058	19.974	100.784	20.049	11.988	0.977	899.565
373.505	439.672	80.057	19.974	100.767	20.062	11.153	0.982	899.582
374.005	440.165	80.056	19.974	100.747	20.076	10.245	1.002	899.588
374.505	440.674	80.057	19.975	100.734	20.087	9.601	1.001	899.584
375.005	441.171	80.060	19.975	100.722	20.099	8.828	1.006	899.591
375.505	441.656	80.059	19.975	100.714	20.109	8.173	0.982	899.592
376.005	442.147	80.060	19.974	100.713	20.120	7.452	0.976	899.556
376.506	442.678	80.061	19.974	100.712	20.126	7.046	1.022	899.602
377.005	443.119	80.060	19.975	100.703	20.138	6.269	0.973	899.598
377.505	443.656	80.060	19.974	100.695	20.147	5.660	0.978	899.624
378.005	444.147	80.063	19.974	100.687	20.154	5.197	1.028	899.633
378.505	444.664	80.060	19.975	100.678	20.164	4.432	1.009	899.627
379.005	445.112	80.059	19.974	100.670	20.172	3.864	0.965	899.627
379.505	445.648	80.059	19.974	100.662	20.178	3.486	0.983	899.636
380.006	446.153	80.059	19.975	100.648	20.185	3.036	1.041	899.591
380.506	446.618	80.060	19.975	100.637	20.191	2.777	0.970	899.645
381.006	447.144	80.058	19.975	100.623	20.202	2.031	0.991	899.641
381.506	447.647	80.058	19.975	100.610	20.205	1.907	1.029	899.604
382.006	448.145	80.059	19.974	100.600	20.209	1.770	1.001	899.617
382.506	448.618	80.057	19.975	100.593	20.214	1.432	0.971	899.657
383.006	449.163	80.059	19.975	100.586	20.218	1.085	1.018	899.680
383.506	449.658	80.060	19.974	100.578	20.223	0.747	1.041	899.671
384.005	450.134	80.059	19.975	100.569	20.231	0.251	0.972	899.633
384.505	450.628	80.058	19.975	100.560	20.232	0.179	0.969	899.679
385.005	451.157	80.057	19.974	100.556	20.239	-0.269	1.023	899.655
385.505	451.626	80.059	19.975	100.553	20.243	-0.546	0.998	899.669
386.006	452.116	80.059	19.975	100.552	20.250	-0.900	0.959	899.676
386.506	452.613	80.058	19.974	100.550	20.252	-1.032	0.987	899.663
387.005	453.136	80.057	19.974	100.546	20.256	-1.264	1.020	899.694
387.506	453.617	80.057	19.974	100.533	20.257	-1.305	1.004	899.699
388.006	454.125	80.056	19.974	100.521	20.257	-1.202	0.989	899.675
388.505	454.653	80.058	19.974	100.512	20.265	-1.791	1.036	899.730
389.006	455.128	80.059	19.974	100.504	20.263	-1.681	1.003	899.732
389.506	455.648	80.060	19.974	100.498	20.266	-1.848	0.996	899.728
390.006	456.118	80.059	19.974	100.498	20.270	-2.010	0.990	899.723
390.506	456.630	80.058	19.974	100.498	20.267	-1.792	0.982	899.730
391.005	457.148	80.057	19.974	100.494	20.272	-2.147	1.031	899.725
391.505	457.623	80.058	19.974	100.487	20.273	-2.160	0.992	899.749
392.006	458.120	80.055	19.974	100.484	20.272	-2.094	0.971	899.738
392.506	458.611	80.056	19.972	100.480	20.276	-2.320	0.987	899.724
393.006	459.121	80.056	19.972	100.475	20.278	-2.439	1.001	899.735
393.506	459.627	80.054	19.973	100.466	20.278	-2.386	1.017	899.773
394.006	460.142	80.057	19.973	100.463	20.279	-2.492	1.020	899.743
394.506	460.639	80.055	19.972	100.458	20.281	-2.530	1.012	899.730
395.006	461.120	80.055	19.973	100.452	20.281	-2.535	0.979	899.774
395.506	461.592	80.056	19.974	100.446	20.278	-2.312	0.953	899.767
396.005	462.128	80.055	19.973	100.450	20.281	-2.570	1.007	899.740
396.506	462.626	80.054	19.974	100.449	20.283	-2.681	1.034	899.768
397.006	463.095	80.056	19.974	100.444	20.281	-2.519	0.968	899.793
397.506	463.602	80.056	19.974	100.440	20.282	-2.587	0.975	899.778
398.006	464.123	80.058	19.974	100.440	20.286	-2.830	1.028	899.794
398.505	464.611	80.060	19.974	100.433	20.286	-2.768	1.009	899.797
399.005	465.139	80.058	19.974	100.432	20.287	-2.823	1.016	899.773
399.506	465.583	80.058	19.974	100.433	20.287	-2.780	0.973	899.776
400.005	466.103	80.058	19.974	100.430	20.290	-2.955	0.965	899.781
400.505	466.627	80.057	19.975	100.423	20.287	-2.718	1.042	899.805
401.006	467.132	80.056	19.976	100.423	20.285	-2.487	1.028	899.790
401.506	467.632	80.056	19.976	100.417	20.288	-2.584	1.007	899.801
402.005	468.123	80.057	19.975	100.413	20.287	-2.520	0.991	899.825
402.506	468.640	80.057	19.976	100.416	20.287	-2.531	1.007	899.812
403.006	469.138	80.055	19.975	100.421	20.286	-2.459	1.015	899.825
403.506	469.612	80.057	19.975	100.419	20.287	-2.557	0.973	899.838
404.005	470.117	80.055	19.974	100.419	20.288	-2.650	0.979	899.831
404.506	470.620	80.056	19.974	100.415	20.287	-2.617	1.008	899.843
405.006	471.099	80.058	19.975	100.411	20.294	-3.091	0.982	899.819
405.506	471.605	80.057	19.974	100.407	20.291	-2.834	0.984	899.837
406.006	472.116	80.057	19.975	100.403	20.291	-2.822	1.016	899.844
406.506	472.609	80.056	19.976	100.400	20.289	-2.668	1.005	899.858
407.006	473.125	80.055	19.976	100.400	20.290	-2.806	1.009	899.881
407.506	473.609	80.056	19.975	100.399	20.289	-2.715	1.000	899.832
408.006	474.120	80.054	19.975	100.394	20.289	-2.663	0.995	899.868
408.506	474.633	80.054	19.975	100.389	20.288	-2.570	1.024	899.864
409.005	475.150	80.056	19.975	100.380	20.288	-2.462	1.031	899.848
409.505	475.623	80.056	19.973	100.381	20.287	-2.344	0.990	899.863
410.006	476.103	80.056	19.973	100.383	20.288	-2.355	0.952	899.911
410.506	476.612	80.056	19.974	100.388	20.290	-2.580	0.989	899.885
411.006	477.114	80.055	19.973	100.389	20.287	-2.307	1.011	899.927
411.506	477.604	80.055	19.973	100.391	20.292	-2.679	0.991	899.894
412.006	478.094	80.056	19.974	100.385	20.292	-2.652	0.980	899.895
412.506	478.605	80.056	19.974	100.380	20.292	-2.698	1.001	899.871
413.007	479.108	80.058	19.975	100.378	20.290	-2.533	1.015	899.925
413.506	479.627	80.057	19.976	100.383	20.291	-2.521	1.024	899.927
414.006	480.115	80.056	19.975	100.388	20.289	-2.404	1.007	899.939
414.505	480.625	80.058	19.975	100.390	20.291	-2.566	0.997	899.911
415.006	481.128	80.056	19.974	100.387	20.293	-2.679	1.013	899.955
415.506	481.629	80.057	19.974	100.382	20.292	-2.560	1.005	899.922
416.005	482.113	80.058	19.975	100.377	20.291	-2.467	0.985	899.967
416.506	482.620	80.055	19.975	100.371	20.290	-2.406	0.991	899.960
417.006	483.105	80.055	19.974	100.366	20.288	-2.365	0.992	899.986
417.506	483.615	80.056	19.975	100.369	20.292	-2.746	0.995	899.956
418.006	484.109	80.056	19.974	100.372	20.292	-2.828	1.003	899.941
418.506	484.617	80.056	19.974	100.368	20.289	-2.690	1.002	899.939
419.006	485.121	80.055	19.975	100.368	20.291	-2.873	1.012	900.001
419.506	485.618	80.057	19.975	100.369	20.293	-3.018	1.002	899.992
420.006	486.094	80.056	19.975	100.367	20.293	-2.876	0.974	900.019
420.506	486.610	80.056	19.975	100.364	20.292	-2.756	0.992	900.012
421.006	487.092	80.058	19.974	100.365	20.295	-2.969	0.998	899.984
421.506	487.577	80.058	19.974	100.364	20.287	-2.297	0.967	899.976
422.006	488.094	80.060	19.975	100.363	20.289	-2.446	1.003	900.022
422.506	488.589	80.058	19.974	100.361	20.289	-2.495	1.011	899.995
423.006	489.108	80.056	19.974	100.360	20.290	-2.541	1.013	900.008
423.506	489.606	80.057	19.975	100.360	20.291	-2.549	1.017	900.046
424.006	490.076	80.059	19.973	100.362	20.291	-2.495	0.968	900.020
424.506	490.611	80.058	19.974	100.369	20.292	-2.598	1.005	900.053
425.005	491.083	80.060	19.974	100.375	20.293	-2.611	1.008	900.019
425.506	491.604	80.059	19.974	100.381	20.293	-2.611	0.993	900.057
426.006	492.067	80.056	19.973	100.387	20.295	-2.748	0.984	900.051
426.506	492.591	80.058	19.974	100.389	20.289	-2.357	0.987	900.053
427.006	493.072	80.060	19.974	100.382	20.291	-2.508	1.005	900.043
427.506	493.581	80.059	19.974	100.375	20.292	-2.579	0.990	900.058
428.006	494.094	80.058	19.973	100.370	20.299	-3.102	1.021	900.046
428.506	494.582	80.057	19.974	100.368	20.295	-2.710	1.000	900.053
429.006	495.084	80.060	19.975	100.367	20.295	-2.653	0.990	900.047
429.506	495.614	80.059	19.975	100.368	20.295	-2.609	1.031	900.054
430.007	496.077	80.058	19.975	100.370	20.293	-2.539	0.993	900.092
430.506	496.611	80.060	19.975	100.368	20.297	-2.750	0.997	900.102
431.006	497.099	80.059	19.975	100.364	20.294	-2.471	1.022	900.083
431.506	497.580	80.059	19.975	100.360	20.298	-2.845	0.969	900.090
432.006	498.082	80.061	19.975	100.360	20.295	-2.619	0.983	900.134
432.506	498.577	80.060	19.974	100.358	20.294	-2.592	0.997	900.109
433.006	499.054	80.059	19.976	100.358	20.292	-2.388	0.972	900.105
433.506	499.604	80.058	19.975	100.359	20.297	-2.835	1.027	900.114
434.006	500.077	80.058	19.974	100.363	20.296	-2.848	1.022	900.086
434.507	500.566	80.059	19.975	100.360	20.294	-2.660	0.963	900.111
435.006	501.075	80.059	19.974	100.359	20.293	-2.504	0.999	900.114
435.506	501.581	80.057	19.974	100.357	20.294	-2.601	1.015	900.148
436.006	502.082	80.060	19.975	100.350	20.290	-2.336	1.006	900.171
436.507	502.606	80.059	19.974	100.345	20.293	-2.526	1.024	900.156
437.007	503.088	80.059	19.974	100.347	20.291	-2.407	1.008	900.156
437.506	503.598	80.061	19.974	100.349	20.297	-2.904	0.992	900.148
438.006	504.090	80.058	19.973	100.347	20.297	-2.917	1.001	900.201
438.507	504.616	80.056	19.974	100.348	20.295	-2.708	1.018	900.182
439.007	505.101	80.055	19.973	100.349	20.293	-2.472	1.011	900.168
439.507	505.574	80.055	19.973	100.348	20.297	-2.703	0.959	900.187
440.006	506.089	80.057	19.974	100.346	20.295	-2.441	0.989	900.197
440.506	506.576	80.056	19.973	100.350	20.296	-2.451	1.001	900.196
441.006	507.049	80.056	19.973	100.358	20.296	-2.449	0.960	900.188
441.506	507.548	80.055	19.974	100.361	20.292	-2.182	0.972	900.191
442.006	508.048	80.053	19.974	100.354	20.294	-2.372	0.998	900.200
442.507	508.557	80.056	19.974	100.352	20.293	-2.340	1.008	900.201
443.007	509.053	80.057	19.973	100.352	20.294	-2.447	1.006	900.258
443.507	509.564	80.057	19.973	100.350	20.295	-2.497	1.007	900.235
444.007	510.076	80.055	19.974	100.351	20.293	-2.332	1.022	900.226
444.507	510.587	80.055	19.974	100.359	20.296	-2.542	1.023	900.237
445.007	511.071	80.057	19.973	100.361	20.294	-2.356	0.995	900.270
445.507	511.558	80.057	19.974	100.358	20.296	-2.503	0.971	900.250
446.006	512.062	80.055	19.974	100.352	20.294	-2.322	0.992	900.238
446.506	512.555	80.058	19.973	100.346	20.297	-2.563	0.997	900.255
447.006	513.069	80.059	19.974	100.339	20.295	-2.427	1.007	900.221
447.506	513.560	80.059	19.974	100.334	20.296	-2.436	1.004	900.259
448.006	514.092	80.058	19.974	100.330	20.296	-2.376	1.023	900.267
448.507	514.587	80.061	19.974	100.330	20.300	-2.667	1.027	900.277
449.006	515.090	80.058	19.974	100.335	20.297	-2.501	0.999	900.265
449.506	515.596	80.059	19.973	100.340	20.298	-2.599	1.009	900.278
450.007	516.069	80.058	19.975	100.343	20.298	-2.736	0.978	900.307
450.507	516.578	80.059	19.974	100.344	20.298	-2.731	0.983	900.281
451.006	517.091	80.060	19.975	100.342	20.301	-3.079	1.022	900.308
451.506	517.592	80.057	19.975	100.336	20.301	-3.047	1.014	900.299
452.006	518.075	80.058	19.974	100.333	20.298	-2.779	0.984	900.329
452.506	518.591	80.059	19.975	100.333	20.299	-2.700	0.999	900.304
453.007	519.086	80.054	19.976	100.334	20.297	-2.492	1.010	900.350
453.506	519.580	80.057	19.975	100.332	20.296	-2.362	0.990	900.324
454.006	520.092	80.058	19.975	100.336	20.298	-2.454	1.006	900.331
454.507	520.587	80.058	19.974	100.334	20.302	-2.807	1.006	900.331
455.007	521.043	80.056	19.974	100.329	20.297	-2.541	0.950	900.349
455.507	521.571	80.053	19.974	100.323	20.299	-2.831	0.984	900.362
456.006	522.100	80.055	19.974	100.323	20.297	-2.659	1.058	900.359
456.506	522.560	80.057	19.975	100.324	20.297	-2.813	0.990	900.354
457.006	523.065	80.056	19.975	100.330	20.295	-2.719	0.965	900.394
457.506	523.590	80.059	19.974	100.343	20.299	-3.007	1.030	900.391
458.006	524.066	80.057	19.974	100.347	20.298	-2.867	1.000	900.403
458.507	524.589	80.056	19.974	100.351	20.300	-2.937	0.998	900.364
459.007	525.060	80.057	19.974	100.348	20.299	-2.858	0.995	900.364
459.506	525.546	80.057	19.973	100.340	20.299	-2.711	0.958	900.376
460.006	526.079	80.058	19.973	100.326	20.301	-2.735	1.018	900.387
460.506	526.561	80.057	19.973	100.327	20.303	-2.844	1.015	900.382
461.006	527.049	80.058	19.974	100.324	20.302	-2.805	0.970	900.411
461.506	527.522	80.058	19.974	100.321	20.302	-2.819	0.961	900.402
462.006	528.089	80.059	19.974	100.327	20.302	-2.893	1.040	900.434
462.506	528.576	80.058	19.975	100.336	20.302	-2.987	1.054	900.423
463.006	529.039	80.060	19.974	100.341	20.305	-3.319	0.950	900.413
463.506	529.551	80.057	19.975	100.346	20.306	-3.470	0.974	900.443
464.007	530.066	80.057	19.976	100.356	20.303	-3.226	1.026	900.436
464.507	530.564	80.060	19.976	100.355	20.305	-3.369	1.012	900.428
465.007	531.051	80.059	19.975	100.354	20.305	-3.337	0.985	900.456
465.507	531.577	80.058	19.976	100.347	20.303	-3.109	1.014	900.463
466.007	532.020	80.057	19.975	100.345	20.304	-3.116	0.970	900.482
466.506	532.585	80.055	19.976	100.336	20.307	-3.259	1.009	900.449
467.006	533.049	80.058	19.976	100.330	20.302	-2.898	1.030	900.465
467.506	533.552	80.056	19.974	100.321	20.301	-2.878	0.967	900.485
468.006	534.032	80.055	19.975	100.322	20.302	-2.940	0.982	900.493
468.506	534.553	80.055	19.975	100.323	20.304	-3.203	1.001	900.488
469.007	535.056	80.055	19.976	100.325	20.304	-3.237	1.024	900.512
469.507	535.568	80.057	19.977	100.330	20.304	-3.303	1.014	900.491
470.007	536.052	80.060	19.976	100.340	20.302	-3.202	0.996	900.511
470.507	536.548	80.060	19.976	100.347	20.305	-3.444	0.981	900.513
471.006	537.062	80.058	19.975	100.350	20.303	-3.245	1.011	900.534
471.506	537.564	80.057	19.975	100.349	20.303	-3.192	1.015	900.534
472.007	538.049	80.056	19.975	100.347	20.301	-2.963	0.986	900.562
472.507	538.539	80.057	19.975	100.341	20.302	-2.974	0.976	900.538
473.007	539.035	80.056	19.975	100.332	20.303	-3.007	0.986	900.523
473.507	539.564	80.056	19.974	100.329	20.303	-2.936	1.025	900.545
474.006	540.051	80.057	19.974	100.332	20.301	-2.755	1.016	900.556
474.507	540.538	80.056	19.974	100.330	20.303	-2.996	0.974	900.532
475.007	541.043	80.057	19.976	100.335	20.305	-3.069	0.991	900.553
475.507	541.543	80.059	19.976	100.337	20.300	-2.763	1.004	900.562
476.008	542.035	80.060	19.975	100.339	20.303	-3.001	0.992	900.566
476.507	542.593	80.059	19.974	100.345	20.303	-3.059	1.051	900.584
477.007	543.058	80.061	19.974	100.351	20.300	-2.888	1.023	900.560
477.507	543.531	80.058	19.975	100.353	20.301	-2.953	0.939	900.607
478.007	544.030	80.060	19.974	100.355	0.000	0.000	0.972	900.551
478.506	544.552	80.059	19.974	100.350	0.000	0.000	1.021	900.585
479.006	545.045	80.059	19.974	100.341	0.000	0.000	1.015	900.591
479.506	545.551	80.060	19.974	100.335	0.000	0.000	0.998	900.599
480.007	546.028	80.059	19.975	100.331	0.000	0.000	0.982	900.625
480.508	546.539	80.060	19.975	100.330	0.000	0.000	0.988	900.622
481.007	547.029	80.061	19.975	100.329	0.000	0.000	1.002	900.609
481.507	547.537	80.059	19.974	100.330	0.000	0.000	0.997	900.603
482.007	548.051	80.056	19.974	100.329	0.000	0.000	1.021	900.629
482.508	548.542	80.056	19.973	100.327	0.000	0.000	1.005	900.642
483.008	549.045	80.059	19.974	100.327	0.000	0.000	0.995	900.646
483.507	549.540	80.058	19.974	100.336	0.000	0.000	0.999	900.638
484.007	550.035	80.057	19.973	100.341	0.000	0.000	0.989	900.640
484.507	550.531	80.059	19.974	100.340	0.000	0.000	0.990	900.642
485.008	551.043	80.060	19.974	100.343	0.000	0.000	1.008	900.686
485.508	551.564	80.058	19.973	100.343	0.000	0.000	1.034	900.644
486.007	552.060	80.059	19.974	100.338	0.000	0.000	1.018	900.673
486.507	552.554	80.060	19.974	100.336	0.000	0.000	0.990	900.644
487.008	553.020	80.057	19.974	100.332	0.000	0.000	0.959	900.673
487.508	553.542	80.057	19.974	100.324	0.000	0.000	0.987	900.649
