File Name:	PMMA_DE_6mm_60Kmin_4mg_R3.txt
Version: 8.3.7.3
Date:	05 Sep 2024
Operator:	KH
Test ID:	PMMA_DE_6mm_4mg_60K_R3
Sample ID:	PMMA_DE_6mm_4mg
Sample Mass (mg):	4.0900
Sample Cup Mass (mg):	186.2800
End Total Mass (mg):	0.0000
Heating Rate (C/s):	1.0000
Combuster Temperature (C):	900.0
N2 Flow Rate (cc/min):	80.0
O2 Flow Rate (cc/min):	20.0
Calibration File:	Coeff.txt
T Correction Coefficients:	0.308738730	0.013615500	0.000000000
Time Shift (s):	10.0
Pre-Test Comments:
Post-Test Comments:
Baseline Flow:	100.240
Baseline O2:	20.196
Instrument ID:
@
Time (s)	Temperature (C)	N2 Flow (cc/min)	O2 Flow (cc/min)	Total Flow (cc/min)	Oxygen (%)	HRR (W/g)	Heating Rate (C/s)	Combustor Temp (C)
0.000	74.967	80.017	19.978	100.240	20.184	-8.399	0.048	900.482
0.499	74.953	80.014	19.978	100.242	20.167	-7.028	-0.008	900.476
0.999	74.971	80.016	19.977	100.243	20.144	-5.212	0.005	900.466
1.499	75.001	80.017	19.978	100.252	20.128	-3.962	0.047	900.452
1.999	75.029	80.015	19.978	100.291	20.111	-2.615	0.057	900.455
2.499	75.045	80.018	19.978	100.372	20.100	-1.740	0.045	900.434
2.999	75.069	80.019	19.979	100.474	20.095	-1.286	0.040	900.426
3.499	75.149	80.017	19.979	100.599	20.088	-0.668	0.104	900.437
3.999	75.199	80.017	19.979	100.723	20.084	-0.376	0.131	900.449
4.499	75.298	80.016	19.980	100.824	20.079	0.105	0.149	900.437
5.000	75.306	80.016	19.979	100.880	20.079	-0.217	0.107	900.412
5.500	75.426	80.018	19.979	100.912	20.078	-1.087	0.127	900.419
6.000	75.526	80.015	19.979	100.920	20.078	-2.649	0.220	900.400
6.500	75.599	80.016	19.978	100.916	20.078	-4.516	0.174	900.417
7.000	75.718	80.018	19.979	100.905	20.076	-6.437	0.191	900.393
7.500	75.868	80.016	19.978	100.900	20.075	-8.511	0.269	900.400
8.000	75.975	80.016	19.978	100.895	20.074	-10.323	0.257	900.383
8.500	76.100	80.019	19.979	100.890	20.074	-11.410	0.232	900.410
8.999	76.255	80.019	19.978	100.887	20.077	-12.130	0.280	900.433
9.499	76.368	80.019	19.978	100.888	20.072	-11.812	0.268	900.421
9.999	76.536	80.018	19.979	100.886	20.070	-11.375	0.280	900.423
10.499	76.681	80.017	19.978	100.880	20.056	-9.820	0.312	900.399
10.999	76.809	80.018	19.977	100.875	20.034	-7.542	0.273	900.405
11.499	76.950	80.016	19.976	100.870	20.006	-4.744	0.269	900.383
11.999	77.126	80.015	19.976	100.866	19.971	-1.447	0.317	900.405
12.500	77.339	80.017	19.977	100.893	19.950	0.848	0.389	900.353
13.000	77.539	80.016	19.977	100.979	19.933	2.621	0.412	900.362
13.499	77.776	80.017	19.976	101.110	19.925	3.798	0.438	900.351
13.999	78.011	80.018	19.977	101.269	19.919	4.849	0.472	900.381
14.500	78.294	80.017	19.977	101.441	19.917	5.485	0.518	900.384
15.000	78.573	80.017	19.976	101.594	19.918	5.989	0.562	900.381
15.500	78.848	80.014	19.977	101.694	19.925	6.041	0.554	900.369
15.999	79.167	80.017	19.977	101.744	19.934	5.884	0.594	900.380
16.500	79.518	80.017	19.977	101.759	19.938	6.071	0.669	900.363
17.000	79.880	80.016	19.976	101.747	19.944	5.999	0.713	900.334
17.499	80.194	80.016	19.976	101.716	19.953	5.714	0.677	900.368
18.000	80.566	80.014	19.976	101.674	19.954	5.981	0.686	900.356
18.499	80.939	80.013	19.976	101.630	19.960	5.726	0.745	900.355
18.999	81.378	80.017	19.976	101.580	19.973	5.056	0.812	900.338
19.499	81.732	80.017	19.976	101.535	19.977	4.946	0.793	900.347
19.999	82.156	80.017	19.976	101.491	19.984	4.723	0.778	900.344
20.500	82.561	80.014	19.976	101.456	19.993	4.296	0.827	900.347
21.000	82.968	80.016	19.978	101.417	19.998	4.206	0.812	900.356
21.499	83.401	80.016	19.978	101.378	20.002	4.196	0.841	900.351
21.999	83.819	80.018	19.977	101.342	20.008	4.024	0.850	900.357
22.500	84.266	80.015	19.976	101.302	20.012	3.889	0.864	900.322
23.000	84.725	80.015	19.975	101.255	20.017	3.700	0.906	900.291
23.499	85.132	80.013	19.976	101.222	20.024	3.335	0.866	900.309
24.000	85.610	80.014	19.977	101.187	20.027	3.212	0.885	900.277
24.500	86.087	80.014	19.977	101.158	20.028	3.215	0.955	900.310
25.000	86.552	80.013	19.977	101.138	20.032	3.005	0.943	900.273
25.500	87.026	80.013	19.977	101.117	20.037	2.773	0.940	900.309
25.999	87.513	80.014	19.976	101.096	20.042	2.514	0.961	900.300
26.500	87.986	80.015	19.976	101.085	20.043	2.519	0.959	900.281
27.000	88.457	80.017	19.977	101.064	20.049	2.217	0.943	900.289
27.500	88.934	80.015	19.977	101.045	20.049	2.326	0.949	900.263
27.999	89.434	80.013	19.977	101.027	20.053	2.161	0.978	900.287
28.500	89.912	80.014	19.976	101.003	20.055	2.153	0.977	900.282
29.000	90.417	80.013	19.976	100.983	20.059	1.966	0.983	900.264
29.499	90.955	80.013	19.977	100.965	20.063	1.836	1.044	900.315
30.000	91.422	80.016	19.976	100.953	20.062	1.991	1.004	900.273
30.500	91.953	80.014	19.977	100.941	20.064	1.853	0.997	900.247
31.000	92.442	80.013	19.977	100.932	20.069	1.569	1.020	900.262
31.500	92.938	80.013	19.975	100.925	20.067	1.745	0.986	900.281
31.999	93.451	80.013	19.977	100.919	20.071	1.436	1.009	900.235
32.499	93.978	80.015	19.977	100.911	20.073	1.255	1.040	900.266
32.999	94.463	80.013	19.976	100.905	20.073	1.281	1.012	900.232
33.500	94.990	80.013	19.976	100.897	20.075	1.268	1.011	900.239
34.000	95.516	80.016	19.976	100.886	20.074	1.401	1.054	900.266
34.499	96.034	80.013	19.975	100.878	20.080	1.040	1.045	900.250
34.999	96.596	80.017	19.975	100.864	20.082	0.979	1.080	900.259
35.500	97.060	80.017	19.975	100.857	20.084	0.939	1.025	900.265
36.000	97.606	80.015	19.975	100.851	20.085	0.908	1.009	900.281
36.500	98.106	80.014	19.976	100.839	20.086	0.912	1.047	900.286
36.999	98.607	80.013	19.975	100.828	20.084	1.067	1.002	900.213
37.500	99.177	80.014	19.976	100.824	20.088	0.779	1.070	900.253
38.000	99.665	80.015	19.977	100.817	20.087	0.862	1.058	900.252
38.500	100.215	80.014	19.976	100.816	20.089	0.678	1.038	900.253
39.000	100.729	80.017	19.977	100.819	20.088	0.676	1.065	900.242
39.500	101.286	80.016	19.976	100.820	20.099	-0.062	1.071	900.253
39.999	101.757	80.015	19.976	100.819	20.095	0.234	1.029	900.233
40.499	102.302	80.016	19.977	100.814	20.095	0.245	1.016	900.228
41.000	102.806	80.014	19.976	100.805	20.094	0.338	1.048	900.220
41.500	103.364	80.013	19.975	100.798	20.096	0.274	1.062	900.215
42.000	103.873	80.014	19.977	100.794	20.095	0.428	1.067	900.207
42.500	104.448	80.014	19.976	100.787	20.101	0.078	1.084	900.226
43.000	104.932	80.014	19.976	100.780	20.100	0.166	1.059	900.208
43.500	105.467	80.013	19.977	100.777	20.099	0.313	1.019	900.222
44.000	105.996	80.012	19.976	100.773	20.103	0.106	1.064	900.196
44.500	106.533	80.013	19.976	100.767	20.102	0.260	1.066	900.205
44.999	107.083	80.014	19.976	100.770	20.099	0.490	1.086	900.188
45.500	107.611	80.013	19.975	100.776	20.098	0.624	1.077	900.207
46.000	108.105	80.017	19.976	100.777	20.103	0.221	1.023	900.214
46.499	108.667	80.018	19.975	100.780	20.102	0.339	1.056	900.194
46.999	109.178	80.019	19.975	100.778	20.105	0.111	1.073	900.186
47.500	109.739	80.017	19.976	100.773	20.104	0.135	1.072	900.183
48.000	110.256	80.016	19.975	100.769	20.107	-0.107	1.078	900.203
48.500	110.796	80.016	19.975	100.767	20.108	-0.253	1.056	900.200
49.000	111.313	80.015	19.976	100.763	20.113	-0.498	1.057	900.183
49.500	111.865	80.014	19.976	100.759	20.109	-0.146	1.070	900.158
50.000	112.404	80.015	19.975	100.753	20.110	-0.186	1.090	900.187
50.500	112.909	80.016	19.976	100.746	20.111	-0.226	1.043	900.165
51.000	113.468	80.013	19.976	100.740	20.109	-0.060	1.064	900.155
51.500	114.012	80.015	19.976	100.736	20.112	-0.325	1.103	900.169
52.000	114.530	80.016	19.976	100.734	20.111	-0.290	1.062	900.133
52.500	115.054	80.014	19.976	100.731	20.112	-0.296	1.043	900.140
53.000	115.582	80.016	19.978	100.727	20.110	-0.144	1.053	900.145
53.500	116.095	80.015	19.976	100.728	20.110	-0.012	1.040	900.176
54.000	116.671	80.016	19.976	100.729	20.108	0.226	1.088	900.135
54.501	117.235	80.017	19.977	100.733	20.107	0.419	1.140	900.163
55.000	117.730	80.018	19.976	100.735	20.111	0.137	1.059	900.130
55.501	118.257	80.019	19.975	100.738	20.112	0.033	1.021	900.148
56.001	118.786	80.019	19.976	100.735	20.112	-0.057	1.056	900.151
56.500	119.332	80.017	19.976	100.727	20.114	-0.301	1.076	900.144
57.000	119.871	80.018	19.977	100.722	20.113	-0.235	1.086	900.144
57.500	120.378	80.017	19.976	100.720	20.109	0.093	1.045	900.144
58.000	120.949	80.019	19.977	100.718	20.110	-0.010	1.077	900.141
58.500	121.487	80.019	19.976	100.718	20.111	-0.074	1.110	900.157
59.000	121.993	80.017	19.977	100.726	20.114	-0.273	1.044	900.107
59.500	122.522	80.017	19.976	100.726	20.115	-0.301	1.034	900.127
60.000	123.042	80.018	19.977	100.721	20.112	-0.026	1.048	900.106
60.500	123.565	80.017	19.977	100.716	20.113	-0.134	1.043	900.095
61.000	124.102	80.018	19.977	100.709	20.111	0.054	1.061	900.121
61.500	124.641	80.015	19.976	100.698	20.113	0.001	1.076	900.108
62.000	125.142	80.013	19.975	100.694	20.110	0.304	1.040	900.085
62.500	125.686	80.017	19.975	100.695	20.112	0.182	1.045	900.106
63.000	126.200	80.014	19.976	100.698	20.110	0.372	1.057	900.113
63.500	126.735	80.014	19.976	100.703	20.110	0.483	1.048	900.060
64.000	127.267	80.013	19.975	100.711	20.110	0.592	1.067	900.096
64.500	127.771	80.015	19.977	100.711	20.109	0.727	1.037	900.078
65.000	128.305	80.015	19.976	100.709	20.110	0.567	1.038	900.102
65.500	128.818	80.017	19.977	100.707	20.108	0.795	1.047	900.100
66.000	129.353	80.017	19.977	100.705	20.105	0.928	1.048	900.104
66.500	129.903	80.018	19.976	100.704	20.104	1.023	1.085	900.086
67.001	130.438	80.016	19.976	100.703	20.106	0.742	1.084	900.087
67.500	130.976	80.016	19.975	100.703	20.107	0.670	1.073	900.088
68.000	131.482	80.019	19.976	100.702	20.110	0.429	1.044	900.084
68.500	132.015	80.017	19.977	100.699	20.109	0.567	1.040	900.043
69.000	132.552	80.016	19.976	100.691	20.108	0.695	1.070	900.031
69.500	133.090	80.015	19.976	100.685	20.105	1.006	1.075	900.105
70.000	133.599	80.014	19.977	100.683	20.103	1.165	1.047	900.054
70.500	134.112	80.015	19.976	100.679	20.101	1.333	1.023	900.083
71.000	134.652	80.016	19.976	100.671	20.100	1.403	1.053	900.036
71.500	135.153	80.016	19.976	100.666	20.101	1.269	1.040	900.052
72.000	135.716	80.017	19.977	100.667	20.103	1.083	1.063	900.053
72.501	136.199	80.015	19.976	100.665	20.100	1.259	1.046	900.054
73.000	136.730	80.015	19.976	100.665	20.100	1.232	1.015	900.057
73.500	137.293	80.017	19.977	100.670	20.098	1.357	1.095	900.056
74.000	137.801	80.016	19.977	100.675	20.095	1.605	1.071	900.034
74.500	138.331	80.017	19.977	100.680	20.097	1.441	1.039	900.026
75.000	138.856	80.015	19.977	100.681	20.099	1.343	1.056	900.018
75.500	139.364	80.017	19.978	100.678	20.097	1.572	1.032	900.032
76.000	139.872	80.019	19.976	100.672	20.098	1.599	1.016	900.016
76.500	140.374	80.016	19.977	100.669	20.093	1.980	1.010	900.005
77.000	140.914	80.016	19.978	100.664	20.090	2.274	1.041	900.000
77.500	141.429	80.017	19.977	100.663	20.090	2.383	1.055	900.014
78.000	141.942	80.016	19.977	100.662	20.085	2.746	1.029	900.013
78.500	142.467	80.017	19.976	100.666	20.089	2.482	1.037	900.008
79.000	143.016	80.019	19.977	100.666	20.087	2.587	1.073	900.015
79.500	143.526	80.019	19.977	100.671	20.090	2.399	1.059	900.009
80.000	144.029	80.019	19.976	100.673	20.085	2.672	1.013	899.986
80.500	144.562	80.018	19.976	100.680	20.088	2.409	1.036	900.006
81.000	145.065	80.017	19.977	100.681	20.085	2.550	1.037	900.032
81.500	145.569	80.018	19.976	100.679	20.083	2.696	1.007	899.990
82.000	146.128	80.017	19.976	100.674	20.084	2.615	1.063	900.011
82.500	146.658	80.016	19.978	100.671	20.084	2.685	1.089	900.005
83.000	147.164	80.016	19.977	100.665	20.084	2.688	1.036	899.982
83.500	147.664	80.015	19.977	100.661	20.087	2.442	1.007	899.964
84.000	148.223	80.016	19.976	100.661	20.083	2.797	1.059	899.977
84.500	148.703	80.017	19.976	100.654	20.080	3.089	1.038	899.978
85.000	149.220	80.016	19.977	100.649	20.080	3.134	0.997	899.978
85.500	149.730	80.017	19.976	100.646	20.078	3.214	1.027	899.967
86.000	150.237	80.017	19.976	100.648	20.073	3.647	1.016	899.985
86.501	150.765	80.018	19.977	100.649	20.075	3.524	1.034	899.971
87.001	151.265	80.019	19.976	100.654	20.075	3.515	1.028	899.969
87.500	151.796	80.017	19.976	100.657	20.074	3.647	1.032	899.967
88.000	152.311	80.018	19.977	100.661	20.069	4.032	1.046	899.960
88.501	152.841	80.017	19.977	100.663	20.071	3.881	1.045	899.953
89.001	153.349	80.016	19.977	100.666	20.069	4.093	1.038	899.970
89.500	153.863	80.018	19.976	100.666	20.066	4.400	1.023	899.974
90.000	154.376	80.017	19.976	100.664	20.068	4.231	1.028	899.960
90.500	154.890	80.017	19.977	100.661	20.065	4.483	1.026	899.971
91.000	155.401	80.016	19.977	100.655	20.062	4.745	1.024	899.935
91.501	155.935	80.017	19.977	100.651	20.062	4.775	1.045	899.929
92.001	156.425	80.019	19.976	100.652	20.060	4.763	1.024	899.951
92.501	156.933	80.018	19.976	100.653	20.061	4.580	0.999	899.935
93.000	157.447	80.016	19.976	100.653	20.054	5.067	1.022	899.945
93.501	157.987	80.018	19.977	100.653	20.054	5.040	1.053	899.904
94.001	158.474	80.018	19.977	100.650	20.051	5.266	1.027	899.925
94.500	159.013	80.016	19.977	100.647	20.049	5.452	1.027	899.953
95.000	159.538	80.020	19.976	100.646	20.052	5.272	1.064	899.907
95.501	160.045	80.018	19.976	100.646	20.051	5.325	1.032	899.902
96.000	160.529	80.015	19.977	100.646	20.049	5.546	0.992	899.949
96.500	161.061	80.013	19.976	100.642	20.043	6.028	1.015	899.947
97.001	161.555	80.013	19.976	100.635	20.042	6.122	1.025	899.890
97.501	162.089	80.016	19.976	100.631	20.034	6.670	1.028	899.929
98.001	162.571	80.017	19.976	100.629	20.036	6.449	1.017	899.917
98.501	163.123	80.015	19.976	100.627	20.032	6.771	1.034	899.911
99.001	163.643	80.019	19.977	100.633	20.028	7.043	1.071	899.916
99.501	164.133	80.018	19.977	100.645	20.026	7.183	1.010	899.942
100.000	164.658	80.018	19.976	100.652	20.024	7.360	1.016	899.901
100.500	165.182	80.020	19.976	100.656	20.021	7.667	1.049	899.924
101.000	165.647	80.019	19.976	100.660	20.014	8.265	0.989	899.901
101.501	166.175	80.017	19.976	100.658	20.015	8.206	0.993	899.896
102.001	166.669	80.018	19.977	100.651	20.008	8.743	1.021	899.917
102.501	167.190	80.017	19.976	100.647	20.004	9.109	1.015	899.897
103.001	167.703	80.019	19.977	100.646	19.999	9.501	1.034	899.894
103.501	168.204	80.017	19.977	100.643	19.995	9.804	1.014	899.930
104.000	168.725	80.017	19.976	100.643	19.990	10.179	1.023	899.879
104.500	169.229	80.020	19.977	100.646	19.984	10.735	1.026	899.851
105.000	169.726	80.016	19.978	100.649	19.983	10.893	1.001	899.873
105.501	170.263	80.018	19.977	100.650	19.976	11.407	1.032	899.903
106.001	170.782	80.019	19.977	100.652	19.970	11.831	1.055	899.843
106.501	171.279	80.021	19.977	100.653	19.966	12.180	1.016	899.889
107.001	171.751	80.019	19.976	100.655	19.959	12.755	0.970	899.901
107.500	172.302	80.018	19.976	100.649	19.958	12.813	1.024	899.869
108.000	172.796	80.017	19.975	100.645	19.950	13.335	1.045	899.852
108.500	173.293	80.019	19.975	100.642	19.947	13.563	0.990	899.855
109.001	173.810	80.017	19.976	100.640	19.942	13.899	1.014	899.885
109.501	174.310	80.016	19.975	100.637	19.934	14.491	1.017	899.849
110.001	174.833	80.018	19.976	100.636	19.928	14.963	1.022	899.868
110.501	175.368	80.017	19.977	100.632	19.925	15.267	1.058	899.879
111.001	175.872	80.017	19.976	100.635	19.920	15.654	1.040	899.852
111.500	176.372	80.016	19.975	100.633	19.912	16.278	1.005	899.863
112.000	176.892	80.016	19.974	100.625	19.905	16.872	1.019	899.844
112.501	177.388	80.016	19.975	100.622	19.901	17.281	1.015	899.867
113.001	177.902	80.017	19.976	100.622	19.894	17.775	1.011	899.862
113.500	178.394	80.018	19.976	100.618	19.887	18.300	1.007	899.838
114.000	178.905	80.020	19.975	100.617	19.884	18.613	1.003	899.822
114.501	179.389	80.016	19.976	100.622	19.879	19.029	0.994	899.815
115.001	179.991	80.016	19.976	100.623	19.871	19.610	1.085	899.860
115.501	180.478	80.018	19.976	100.625	19.871	19.757	1.089	899.835
116.001	180.983	80.018	19.978	100.628	19.865	20.259	0.992	899.835
116.501	181.473	80.020	19.977	100.631	19.863	20.320	0.995	899.850
117.001	181.980	80.019	19.978	100.634	19.854	21.047	0.998	899.847
117.500	182.486	80.018	19.978	100.629	19.848	21.518	1.014	899.813
118.000	183.005	80.019	19.977	100.623	19.843	21.966	1.023	899.855
118.501	183.483	80.017	19.977	100.621	19.840	22.218	0.996	899.844
119.001	184.018	80.019	19.978	100.617	19.832	22.818	1.014	899.828
119.501	184.523	80.020	19.976	100.612	19.831	22.976	1.039	899.847
120.002	185.050	80.017	19.977	100.614	19.824	23.543	1.031	899.784
120.501	185.554	80.019	19.976	100.616	19.820	23.843	1.032	899.808
121.001	186.069	80.017	19.976	100.609	19.816	24.072	1.020	899.792
121.501	186.546	80.016	19.978	100.606	19.814	24.230	0.992	899.774
122.001	187.049	80.015	19.976	100.606	19.810	24.482	0.980	899.789
122.501	187.531	80.016	19.976	100.603	19.802	25.152	0.985	899.757
123.001	188.087	80.015	19.975	100.595	19.800	25.427	1.038	899.778
123.501	188.581	80.016	19.975	100.596	19.801	25.456	1.050	899.804
124.001	189.126	80.017	19.976	100.595	19.799	25.707	1.039	899.768
124.501	189.593	80.018	19.976	100.593	19.801	25.577	1.012	899.751
125.000	190.090	80.017	19.975	100.594	19.798	25.918	0.964	899.784
125.501	190.606	80.015	19.976	100.596	19.796	26.005	1.013	899.765
126.000	191.110	80.016	19.977	100.589	19.798	25.860	1.020	899.800
126.500	191.605	80.016	19.977	100.582	19.795	26.019	0.998	899.732
127.001	192.129	80.016	19.977	100.579	19.791	26.333	1.018	899.797
127.501	192.636	80.018	19.977	100.579	19.792	26.353	1.032	899.781
128.001	193.158	80.017	19.977	100.583	19.792	26.440	1.030	899.784
128.501	193.667	80.016	19.976	100.588	19.796	26.240	1.031	899.762
129.001	194.168	80.017	19.975	100.592	19.795	26.298	1.010	899.769
129.501	194.687	80.017	19.976	100.589	19.798	26.144	1.019	899.751
130.001	195.203	80.016	19.975	100.579	19.797	26.252	1.034	899.772
130.502	195.691	80.017	19.975	100.571	19.802	25.806	1.005	899.755
131.001	196.221	80.017	19.975	100.563	19.806	25.502	1.019	899.749
131.501	196.708	80.018	19.975	100.558	19.809	25.314	1.018	899.767
132.000	197.225	80.016	19.975	100.554	19.811	25.253	1.005	899.780
132.500	197.754	80.017	19.976	100.553	19.815	25.058	1.045	899.746
133.000	198.232	80.018	19.976	100.555	19.818	24.769	1.006	899.765
133.501	198.731	80.017	19.975	100.558	19.825	24.226	0.977	899.746
134.000	199.242	80.018	19.975	100.559	19.830	23.764	1.010	899.758
134.501	199.759	80.015	19.974	100.558	19.835	23.356	1.027	899.752
135.001	200.256	80.013	19.974	100.552	19.841	22.812	1.013	899.741
135.501	200.798	80.014	19.975	100.543	19.844	22.560	1.039	899.745
136.001	201.292	80.015	19.974	100.537	19.850	22.087	1.037	899.760
136.501	201.826	80.013	19.975	100.532	19.859	21.462	1.029	899.730
137.001	202.322	80.015	19.974	100.533	19.862	21.221	1.030	899.747
137.501	202.806	80.014	19.974	100.539	19.870	20.653	0.980	899.752
138.001	203.336	80.016	19.974	100.540	19.880	19.884	1.015	899.769
138.501	203.842	80.018	19.975	100.537	19.885	19.517	1.036	899.729
139.001	204.354	80.017	19.975	100.531	19.896	18.766	1.017	899.722
139.501	204.872	80.017	19.975	100.523	19.901	18.392	1.030	899.739
140.001	205.358	80.015	19.975	100.518	19.907	17.947	1.004	899.751
140.501	205.882	80.015	19.976	100.523	19.918	17.068	1.010	899.767
141.001	206.384	80.017	19.976	100.526	19.921	16.754	1.026	899.732
141.501	206.869	80.015	19.975	100.533	19.929	16.046	0.986	899.715
142.001	207.410	80.014	19.974	100.540	19.935	15.481	1.026	899.720
142.501	207.916	80.016	19.975	100.544	19.944	14.724	1.048	899.734
143.000	208.442	80.015	19.975	100.542	19.949	14.310	1.032	899.731
143.500	208.957	80.014	19.976	100.543	19.959	13.407	1.041	899.732
144.001	209.437	80.018	19.976	100.539	19.968	12.681	0.995	899.744
144.501	209.960	80.016	19.975	100.539	19.974	12.245	1.002	899.735
145.001	210.453	80.016	19.976	100.539	19.976	12.009	1.015	899.699
145.502	210.963	80.015	19.975	100.537	19.988	11.125	1.003	899.719
146.001	211.451	80.014	19.975	100.533	19.994	10.669	0.998	899.692
146.502	211.968	80.017	19.975	100.531	19.995	10.672	1.005	899.705
147.001	212.470	80.018	19.974	100.528	20.001	10.278	1.020	899.754
147.501	212.975	80.018	19.974	100.529	20.008	9.714	1.007	899.714
148.001	213.500	80.019	19.974	100.534	20.015	9.199	1.030	899.717
148.501	213.958	80.016	19.974	100.544	20.021	8.733	0.983	899.683
149.001	214.505	80.018	19.974	100.553	20.030	7.996	1.005	899.709
149.501	214.964	80.018	19.977	100.560	20.033	7.695	1.006	899.692
150.001	215.513	80.017	19.975	100.564	20.037	7.340	1.008	899.698
150.501	216.023	80.018	19.975	100.567	20.041	6.963	1.059	899.677
151.001	216.516	80.018	19.974	100.570	20.044	6.704	1.003	899.696
151.501	217.049	80.017	19.976	100.576	20.045	6.561	1.026	899.681
152.000	217.550	80.018	19.976	100.579	20.051	6.104	1.034	899.682
152.501	218.084	80.015	19.975	100.580	20.052	6.054	1.035	899.685
153.001	218.585	80.016	19.976	100.579	20.061	5.394	1.035	899.684
153.501	219.067	80.017	19.976	100.573	20.062	5.370	0.984	899.695
154.000	219.602	80.016	19.975	100.568	20.065	5.080	1.018	899.666
154.501	220.054	80.017	19.976	100.569	20.065	5.118	0.987	899.655
155.001	220.536	80.019	19.976	100.571	20.066	5.090	0.933	899.657
155.501	221.063	80.013	19.976	100.573	20.065	5.201	1.010	899.669
156.001	221.586	80.013	19.975	100.573	20.067	5.141	1.051	899.653
156.500	222.081	80.013	19.975	100.576	20.068	4.981	1.017	899.686
157.001	222.605	80.014	19.975	100.581	20.069	4.958	1.017	899.673
157.502	223.136	80.015	19.976	100.586	20.069	5.107	1.053	899.657
158.002	223.629	80.013	19.975	100.594	20.072	4.896	1.024	899.681
158.502	224.137	80.013	19.975	100.596	20.075	4.666	1.002	899.678
159.001	224.625	80.014	19.976	100.597	20.072	5.021	0.996	899.676
159.501	225.140	80.013	19.976	100.595	20.073	4.989	1.003	899.644
160.001	225.649	80.017	19.977	100.592	20.074	4.955	1.025	899.667
160.500	226.170	80.017	19.978	100.589	20.073	4.929	1.030	899.645
161.001	226.655	80.017	19.977	100.593	20.072	5.012	1.005	899.641
161.502	227.176	80.015	19.977	100.593	20.075	4.848	1.005	899.655
162.002	227.692	80.015	19.977	100.591	20.073	4.933	1.036	899.655
162.502	228.143	80.016	19.976	100.586	20.073	5.009	0.967	899.658
163.002	228.662	80.017	19.977	100.578	20.074	4.895	0.971	899.646
163.501	229.178	80.016	19.976	100.579	20.073	5.029	1.037	899.698
164.001	229.659	80.017	19.976	100.579	20.072	5.152	0.997	899.654
164.501	230.181	80.016	19.976	100.577	20.070	5.402	1.002	899.662
165.001	230.689	80.016	19.975	100.571	20.071	5.441	1.030	899.638
165.501	231.177	80.017	19.976	100.571	20.072	5.357	0.996	899.618
166.002	231.687	80.019	19.977	100.567	20.072	5.445	0.997	899.622
166.502	232.177	80.019	19.977	100.555	20.075	5.313	1.000	899.596
167.002	232.667	80.020	19.976	100.552	20.074	5.416	0.981	899.616
167.502	233.157	80.018	19.976	100.555	20.073	5.412	0.980	899.640
168.001	233.670	80.017	19.976	100.558	20.073	5.367	1.003	899.620
168.501	234.170	80.018	19.977	100.555	20.070	5.583	1.012	899.625
169.002	234.664	80.016	19.977	100.560	20.074	5.349	0.994	899.623
169.502	235.194	80.017	19.977	100.559	20.072	5.501	1.024	899.604
170.002	235.691	80.017	19.977	100.557	20.072	5.543	1.027	899.611
170.502	236.216	80.016	19.977	100.553	20.074	5.372	1.022	899.629
171.002	236.701	80.015	19.976	100.553	20.074	5.477	1.010	899.600
171.502	237.217	80.017	19.977	100.549	20.078	5.160	1.002	899.619
172.002	237.718	80.017	19.978	100.538	20.077	5.211	1.018	899.625
172.501	238.226	80.017	19.976	100.534	20.077	5.183	1.010	899.609
173.001	238.711	80.015	19.977	100.529	20.076	5.193	0.993	899.603
173.501	239.225	80.016	19.976	100.521	20.075	5.335	0.998	899.604
174.001	239.728	80.015	19.977	100.519	20.075	5.312	1.018	899.624
174.501	240.241	80.013	19.977	100.524	20.076	5.258	1.016	899.605
175.001	240.752	80.016	19.976	100.526	20.072	5.578	1.023	899.597
175.501	241.233	80.017	19.977	100.526	20.073	5.418	0.993	899.633
176.001	241.768	80.017	19.977	100.531	20.077	5.180	1.016	899.592
176.501	242.256	80.020	19.976	100.530	20.078	5.100	1.022	899.616
177.001	242.746	80.019	19.978	100.524	20.077	5.126	0.978	899.645
177.501	243.264	80.019	19.977	100.522	20.079	4.935	1.009	899.620
178.001	243.756	80.016	19.976	100.519	20.079	5.007	1.010	899.618
178.501	244.248	80.015	19.977	100.515	20.083	4.682	0.983	899.571
179.002	244.740	80.018	19.976	100.518	20.081	4.817	0.984	899.582
179.501	245.268	80.017	19.977	100.524	20.079	4.915	1.021	899.584
180.001	245.741	80.016	19.976	100.523	20.082	4.707	1.001	899.594
180.501	246.261	80.018	19.974	100.525	20.084	4.569	0.992	899.573
181.002	246.754	80.017	19.976	100.523	20.083	4.706	1.013	899.589
181.501	247.280	80.016	19.976	100.519	20.079	5.038	1.019	899.598
182.001	247.783	80.020	19.977	100.517	20.083	4.852	1.029	899.543
182.501	248.286	80.019	19.977	100.523	20.085	4.801	1.005	899.585
183.002	248.789	80.019	19.976	100.523	20.087	4.742	1.005	899.574
183.501	249.273	80.017	19.976	100.522	20.086	4.820	0.988	899.583
184.001	249.776	80.016	19.976	100.524	20.086	4.802	0.987	899.546
184.502	250.310	80.018	19.976	100.525	20.090	4.427	1.037	899.592
185.001	250.792	80.015	19.977	100.522	20.088	4.487	1.016	899.569
185.501	251.278	80.013	19.976	100.524	20.091	4.193	0.967	899.545
186.002	251.792	80.014	19.976	100.527	20.090	4.221	1.000	899.555
186.501	252.279	80.014	19.976	100.530	20.091	4.136	1.002	899.533
187.001	252.787	80.016	19.977	100.530	20.093	4.064	0.996	899.547
187.501	253.303	80.020	19.976	100.527	20.093	4.155	1.023	899.563
188.002	253.822	80.017	19.977	100.524	20.097	3.927	1.034	899.553
188.502	254.322	80.017	19.977	100.522	20.095	4.069	1.020	899.559
189.001	254.824	80.016	19.977	100.518	20.091	4.268	1.002	899.569
189.502	255.313	80.017	19.976	100.511	20.093	4.063	0.990	899.531
190.002	255.853	80.018	19.976	100.502	20.093	4.048	1.029	899.540
190.501	256.341	80.016	19.977	100.496	20.094	3.979	1.028	899.558
191.002	256.849	80.019	19.977	100.494	20.093	4.068	0.996	899.549
191.502	257.371	80.020	19.976	100.497	20.097	3.815	1.030	899.539
192.002	257.847	80.018	19.977	100.506	20.094	4.041	0.997	899.552
192.502	258.352	80.019	19.977	100.517	20.094	4.015	0.981	899.537
193.001	258.862	80.021	19.978	100.522	20.093	4.110	1.016	899.533
193.502	259.377	80.017	19.979	100.522	20.094	4.077	1.026	899.555
194.001	259.824	80.016	19.978	100.516	20.096	3.937	0.963	899.546
194.501	260.355	80.018	19.977	100.508	20.096	4.028	0.978	899.573
195.001	260.849	80.017	19.977	100.504	20.095	4.057	1.024	899.576
195.501	261.381	80.018	19.976	100.501	20.094	4.206	1.026	899.549
196.001	261.850	80.017	19.976	100.506	20.098	3.831	1.001	899.534
196.502	262.407	80.018	19.978	100.510	20.094	4.116	1.025	899.571
197.002	262.883	80.018	19.977	100.516	20.091	4.235	1.032	899.534
197.502	263.357	80.017	19.978	100.518	20.090	4.213	0.950	899.558
198.001	263.854	80.021	19.977	100.518	20.091	4.179	0.972	899.544
198.501	264.359	80.023	19.976	100.513	20.094	3.945	1.003	899.552
199.001	264.846	80.021	19.976	100.512	20.089	4.289	0.992	899.582
199.501	265.357	80.020	19.978	100.510	20.091	4.092	0.997	899.546
200.002	265.879	80.018	19.976	100.510	20.090	4.203	1.032	899.523
200.502	266.377	80.018	19.977	100.511	20.085	4.599	1.020	899.521
201.002	266.852	80.019	19.977	100.510	20.085	4.584	0.974	899.538
201.501	267.391	80.019	19.976	100.504	20.085	4.569	1.014	899.565
202.001	267.884	80.022	19.977	100.502	20.085	4.573	1.031	899.549
202.502	268.366	80.022	19.976	100.500	20.083	4.660	0.974	899.551
203.002	268.875	80.021	19.976	100.500	20.081	4.875	0.992	899.532
203.502	269.371	80.022	19.977	100.505	20.079	5.098	1.006	899.499
204.001	269.886	80.019	19.976	100.512	20.079	5.155	1.011	899.529
204.501	270.379	80.021	19.977	100.518	20.075	5.439	1.008	899.540
205.001	270.865	80.021	19.978	100.519	20.075	5.511	0.980	899.582
205.501	271.367	80.020	19.977	100.517	20.073	5.769	0.989	899.515
206.002	271.861	80.022	19.977	100.519	20.073	5.761	0.995	899.530
206.502	272.371	80.020	19.977	100.520	20.070	5.853	1.003	899.517
207.002	272.870	80.020	19.977	100.522	20.065	6.200	1.008	899.499
207.502	273.348	80.022	19.977	100.523	20.064	6.294	0.978	899.559
208.001	273.890	80.023	19.977	100.525	20.065	6.270	1.020	899.491
208.502	274.370	80.023	19.976	100.522	20.062	6.495	1.021	899.540
209.002	274.847	80.025	19.978	100.520	20.059	6.783	0.957	899.504
209.502	275.360	80.023	19.977	100.520	20.058	6.909	0.990	899.502
210.002	275.873	80.022	19.977	100.523	20.054	7.307	1.026	899.507
210.502	276.355	80.021	19.979	100.524	20.050	7.547	0.995	899.529
211.002	276.896	80.021	19.979	100.519	20.047	7.745	1.023	899.516
211.502	277.356	80.022	19.977	100.513	20.047	7.697	1.001	899.511
212.002	277.889	80.021	19.977	100.509	20.042	7.946	0.993	899.505
212.502	278.386	80.022	19.976	100.504	20.037	8.230	1.031	899.484
213.001	278.891	80.023	19.977	100.502	20.036	8.220	1.003	899.516
213.502	279.412	80.021	19.976	100.507	20.028	8.767	1.025	899.505
214.002	279.889	80.020	19.976	100.514	20.026	8.928	0.997	899.484
214.503	280.382	80.023	19.977	100.515	20.021	9.283	0.970	899.499
215.002	280.879	80.023	19.977	100.511	20.017	9.707	0.990	899.496
215.502	281.389	80.020	19.977	100.512	20.012	10.135	1.007	899.480
216.002	281.875	80.019	19.978	100.507	20.010	10.412	0.996	899.466
216.502	282.416	80.017	19.977	100.499	20.005	10.773	1.027	899.498
217.001	282.875	80.019	19.977	100.496	20.000	11.180	1.000	899.516
217.501	283.407	80.020	19.977	100.497	19.996	11.481	0.990	899.498
218.002	283.882	80.020	19.978	100.497	19.994	11.587	1.007	899.447
218.502	284.367	80.020	19.978	100.504	19.988	11.975	0.960	899.450
219.002	284.901	80.018	19.978	100.511	19.985	12.219	1.019	899.486
219.501	285.381	80.020	19.979	100.515	19.979	12.731	1.014	899.471
220.001	285.907	80.023	19.979	100.523	19.970	13.490	1.006	899.455
220.502	286.381	80.023	19.979	100.530	19.963	14.069	0.998	899.470
221.003	286.914	80.024	19.978	100.530	19.960	14.303	1.006	899.463
221.502	287.376	80.023	19.979	100.533	19.955	14.763	0.996	899.461
222.002	287.877	80.023	19.979	100.531	19.947	15.309	0.964	899.444
222.502	288.387	80.022	19.978	100.520	19.938	15.987	1.011	899.429
223.001	288.899	80.020	19.978	100.514	19.934	16.288	1.022	899.450
223.502	289.394	80.018	19.977	100.508	19.921	17.277	1.007	899.452
224.002	289.895	80.021	19.978	100.505	19.920	17.358	0.996	899.454
224.502	290.415	80.020	19.979	100.508	19.911	18.059	1.021	899.473
225.001	290.929	80.021	19.977	100.516	19.906	18.459	1.034	899.464
225.502	291.435	80.022	19.978	100.515	19.903	18.778	1.019	899.425
226.003	291.915	80.022	19.977	100.521	19.893	19.605	0.986	899.450
226.502	292.408	80.022	19.976	100.518	19.889	19.881	0.974	899.443
227.002	292.878	80.020	19.977	100.510	19.880	20.620	0.963	899.425
227.502	293.413	80.020	19.978	100.504	19.872	21.237	1.005	899.430
228.002	293.938	80.021	19.977	100.502	19.870	21.472	1.060	899.448
228.503	294.422	80.020	19.977	100.498	19.863	21.965	1.008	899.449
229.003	294.883	80.020	19.976	100.498	19.854	22.647	0.945	899.426
229.503	295.384	80.021	19.977	100.503	19.845	23.279	0.962	899.440
230.002	295.907	80.018	19.976	100.503	19.839	23.846	1.024	899.419
230.502	296.409	80.020	19.976	100.506	19.830	24.534	1.026	899.400
231.001	296.924	80.023	19.976	100.503	19.825	24.978	1.018	899.439
231.502	297.416	80.020	19.977	100.502	19.820	25.370	1.007	899.418
232.002	297.882	80.020	19.976	100.498	19.812	25.968	0.957	899.394
232.502	298.401	80.019	19.977	100.497	19.804	26.544	0.984	899.386
233.003	298.902	80.020	19.978	100.489	19.801	26.714	1.021	899.403
233.502	299.399	80.022	19.976	100.491	19.793	27.196	0.999	899.385
234.002	299.900	80.020	19.976	100.484	19.786	27.687	0.998	899.372
234.502	300.415	80.018	19.975	100.481	19.783	27.987	1.016	899.393
235.002	300.931	80.019	19.975	100.481	19.775	28.609	1.031	899.411
235.502	301.424	80.018	19.976	100.483	19.769	29.180	1.009	899.386
236.002	301.926	80.019	19.975	100.480	19.767	29.359	0.995	899.399
236.502	302.431	80.019	19.977	100.483	19.756	30.239	1.007	899.370
237.002	302.909	80.018	19.977	100.483	19.751	30.585	0.984	899.384
237.502	303.446	80.018	19.976	100.478	19.746	30.982	1.014	899.380
238.002	303.927	80.018	19.977	100.475	19.740	31.397	1.018	899.390
238.502	304.433	80.021	19.977	100.472	19.739	31.544	0.988	899.376
239.001	304.906	80.019	19.977	100.471	19.731	32.164	0.979	899.415
239.502	305.445	80.019	19.976	100.472	19.725	32.652	1.011	899.409
240.002	305.914	80.019	19.976	100.479	19.722	32.912	1.008	899.388
240.502	306.425	80.020	19.976	100.483	19.716	33.402	0.981	899.356
241.002	306.922	80.019	19.977	100.490	19.711	33.752	1.008	899.372
241.501	307.412	80.019	19.976	100.489	19.709	33.900	0.987	899.368
242.001	307.920	80.022	19.977	100.487	19.702	34.351	0.998	899.339
242.502	308.420	80.019	19.977	100.479	19.702	34.273	1.007	899.364
243.002	308.922	80.019	19.976	100.475	19.695	34.764	1.001	899.367
243.502	309.412	80.019	19.977	100.468	19.692	35.056	0.992	899.393
244.002	309.938	80.020	19.978	100.469	19.687	35.442	1.016	899.378
244.502	310.396	80.019	19.977	100.469	19.685	35.635	0.984	899.360
245.002	310.878	80.018	19.977	100.473	19.680	35.966	0.940	899.368
245.502	311.402	80.020	19.977	100.472	19.675	36.396	1.006	899.365
246.002	311.916	80.019	19.976	100.473	19.674	36.424	1.039	899.374
246.502	312.392	80.017	19.977	100.465	19.669	36.698	0.990	899.343
247.002	312.918	80.019	19.976	100.461	19.665	36.968	1.003	899.379
247.502	313.421	80.019	19.977	100.461	19.661	37.290	1.030	899.363
248.001	313.915	80.020	19.977	100.459	19.659	37.483	0.997	899.345
248.501	314.426	80.018	19.975	100.460	19.653	37.997	1.003	899.360
249.002	314.887	80.018	19.977	100.468	19.652	38.119	0.971	899.343
249.503	315.378	80.018	19.977	100.472	19.646	38.511	0.953	899.305
250.002	315.915	80.018	19.977	100.473	19.638	39.038	1.028	899.341
250.502	316.401	80.017	19.976	100.478	19.640	38.767	1.022	899.360
251.003	316.904	80.019	19.975	100.473	19.633	39.158	0.989	899.390
251.502	317.429	80.018	19.975	100.467	19.628	39.406	1.028	899.349
252.002	317.896	80.018	19.976	100.469	19.622	39.842	0.992	899.330
252.502	318.418	80.021	19.975	100.466	19.617	40.127	0.990	899.351
253.002	318.891	80.019	19.975	100.467	19.612	40.409	0.995	899.343
253.502	319.387	80.019	19.976	100.477	19.608	40.667	0.969	899.347
254.002	319.924	80.019	19.975	100.483	19.599	41.331	1.032	899.373
254.502	320.427	80.018	19.976	100.482	19.591	41.894	1.040	899.369
255.002	320.916	80.020	19.977	100.478	19.585	42.217	0.992	899.368
255.502	321.418	80.018	19.977	100.476	19.578	42.629	0.990	899.337
256.002	321.935	80.017	19.976	100.470	19.571	43.194	1.019	899.354
256.502	322.419	80.019	19.976	100.468	19.560	43.947	1.001	899.346
257.002	322.915	80.018	19.976	100.474	19.550	44.628	0.980	899.334
257.502	323.419	80.021	19.977	100.484	19.540	45.303	1.000	899.341
258.002	323.912	80.020	19.977	100.493	19.530	45.966	0.998	899.346
258.502	324.386	80.019	19.976	100.502	19.516	46.997	0.968	899.326
259.001	324.923	80.017	19.977	100.512	19.504	47.861	1.011	899.324
259.502	325.427	80.016	19.976	100.513	19.489	48.935	1.040	899.344
260.002	325.907	80.018	19.976	100.517	19.476	49.800	0.984	899.345
260.502	326.416	80.019	19.977	100.525	19.458	51.112	0.990	899.344
261.001	326.894	80.018	19.977	100.528	19.442	52.316	0.986	899.370
261.502	327.451	80.018	19.977	100.528	19.425	53.579	1.034	899.352
262.003	327.926	80.021	19.977	100.537	19.411	54.517	1.031	899.346
262.502	328.423	80.020	19.976	100.542	19.390	56.015	0.973	899.339
263.002	328.913	80.020	19.976	100.545	19.375	57.075	0.988	899.355
263.502	329.405	80.022	19.977	100.552	19.353	58.703	0.982	899.312
264.002	329.913	80.022	19.977	100.557	19.333	60.213	1.000	899.341
264.502	330.403	80.020	19.977	100.561	19.312	61.770	0.997	899.378
265.003	330.920	80.020	19.977	100.562	19.288	63.618	1.007	899.353
265.502	331.437	80.018	19.977	100.566	19.266	65.331	1.036	899.340
266.002	331.915	80.019	19.979	100.572	19.240	67.308	0.996	899.349
266.502	332.408	80.018	19.979	100.579	19.214	69.226	0.970	899.334
267.002	332.934	80.020	19.978	100.585	19.187	71.281	1.018	899.358
267.502	333.404	80.021	19.978	100.589	19.158	73.468	0.996	899.356
268.003	333.884	80.019	19.977	100.589	19.133	75.359	0.950	899.379
268.502	334.403	80.021	19.977	100.591	19.105	77.562	0.999	899.352
269.003	334.901	80.022	19.977	100.594	19.074	79.971	1.016	899.335
269.503	335.408	80.020	19.977	100.601	19.045	82.143	1.006	899.320
270.002	335.884	80.019	19.977	100.611	19.012	84.574	0.984	899.298
270.502	336.409	80.017	19.976	100.617	18.982	86.830	1.001	899.337
271.002	336.873	80.015	19.975	100.619	18.953	88.912	0.990	899.310
271.502	337.414	80.017	19.976	100.620	18.915	91.765	1.005	899.339
272.002	337.903	80.016	19.976	100.615	18.884	94.021	1.029	899.320
272.503	338.379	80.016	19.976	100.611	18.847	96.779	0.966	899.312
273.002	338.873	80.018	19.977	100.612	18.815	99.249	0.971	899.324
273.502	339.397	80.016	19.976	100.614	18.776	102.177	1.017	899.317
274.003	339.900	80.017	19.976	100.617	18.741	104.870	1.026	899.327
274.503	340.403	80.014	19.976	100.618	18.702	107.788	1.005	899.342
275.003	340.886	80.014	19.975	100.615	18.666	110.502	0.986	899.298
275.503	341.395	80.015	19.975	100.609	18.628	113.405	0.993	899.323
276.003	341.890	80.016	19.976	100.603	18.592	116.136	1.005	899.341
276.502	342.395	80.018	19.976	100.598	18.550	119.286	0.999	899.329
277.003	342.875	80.018	19.977	100.601	18.510	122.315	0.985	899.342
277.503	343.380	80.018	19.978	100.606	18.467	125.523	0.985	899.305
278.003	343.875	80.018	19.977	100.612	18.426	128.660	1.000	899.338
278.503	344.380	80.019	19.976	100.618	18.385	131.805	1.001	899.333
279.002	344.922	80.018	19.976	100.624	18.343	135.030	1.048	899.344
279.503	345.385	80.020	19.976	100.625	18.298	138.409	1.004	899.349
280.003	345.885	80.021	19.976	100.626	18.254	141.764	0.963	899.344
280.503	346.396	80.019	19.976	100.622	18.214	144.862	1.011	899.345
281.003	346.890	80.017	19.975	100.622	18.168	148.320	1.005	899.314
281.502	347.358	80.017	19.976	100.619	18.126	151.425	0.963	899.338
282.002	347.870	80.018	19.976	100.617	18.084	154.551	0.979	899.312
282.503	348.354	80.017	19.976	100.614	18.037	158.067	0.996	899.340
283.003	348.841	80.016	19.977	100.615	17.990	161.574	0.971	899.310
283.503	349.335	80.020	19.977	100.614	17.948	164.647	0.981	899.323
284.002	349.876	80.017	19.977	100.614	17.898	168.389	1.035	899.340
284.502	350.385	80.015	19.976	100.614	17.853	171.815	1.050	899.292
285.003	350.881	80.018	19.976	100.613	17.808	175.129	1.004	899.325
285.503	351.352	80.019	19.977	100.610	17.761	178.613	0.967	899.321
286.003	351.846	80.018	19.976	100.606	17.715	182.012	0.965	899.327
286.503	352.340	80.017	19.976	100.601	17.667	185.597	0.988	899.337
287.003	352.864	80.018	19.977	100.596	17.624	188.799	1.018	899.336
287.502	353.329	80.020	19.978	100.591	17.573	192.596	0.990	899.326
288.002	353.830	80.019	19.977	100.590	17.530	195.938	0.966	899.357
288.503	354.341	80.019	19.978	100.590	17.482	199.549	1.011	899.322
289.003	354.836	80.019	19.977	100.592	17.442	202.640	1.005	899.307
289.504	355.342	80.018	19.977	100.597	17.387	206.803	1.001	899.377
290.003	355.847	80.019	19.976	100.600	17.345	209.988	1.012	899.349
290.502	356.336	80.022	19.976	100.600	17.304	213.148	0.995	899.354
291.003	356.838	80.019	19.977	100.603	17.256	216.751	0.991	899.349
291.503	357.330	80.019	19.977	100.602	17.209	220.283	0.994	899.336
292.002	357.797	80.018	19.976	100.599	17.166	223.433	0.959	899.338
292.502	358.295	80.017	19.977	100.603	17.116	227.213	0.965	899.330
293.002	358.785	80.020	19.977	100.609	17.071	230.535	0.988	899.311
293.503	359.301	80.019	19.977	100.607	17.031	233.593	1.005	899.318
294.003	359.823	80.019	19.978	100.610	16.988	236.769	1.037	899.314
294.503	360.261	80.020	19.978	100.611	16.945	239.955	0.960	899.328
295.003	360.792	80.019	19.977	100.608	16.906	242.866	0.970	899.302
295.503	361.293	80.020	19.976	100.600	16.863	246.090	1.032	899.335
296.002	361.763	80.020	19.977	100.597	16.823	249.060	0.971	899.310
296.502	362.260	80.019	19.977	100.589	16.784	251.970	0.966	899.334
297.003	362.797	80.020	19.977	100.587	16.746	254.793	1.034	899.329
297.503	363.265	80.017	19.977	100.580	16.710	257.486	1.005	899.311
298.002	363.791	80.018	19.977	100.577	16.671	260.430	0.994	899.355
298.502	364.272	80.017	19.976	100.573	16.640	262.771	1.007	899.352
299.002	364.762	80.017	19.977	100.572	16.603	265.517	0.971	899.329
299.502	365.254	80.018	19.979	100.568	16.567	268.129	0.981	899.324
300.003	365.757	80.019	19.978	100.571	16.534	270.450	0.995	899.328
300.502	366.282	80.018	19.978	100.572	16.498	272.967	1.028	899.333
301.003	366.771	80.019	19.977	100.570	16.468	275.034	1.014	899.365
301.502	367.262	80.020	19.977	100.571	16.439	277.034	0.980	899.321
302.002	367.769	80.019	19.977	100.572	16.408	279.158	0.997	899.349
302.503	368.251	80.019	19.977	100.570	16.379	281.140	0.989	899.322
303.003	368.766	80.018	19.976	100.571	16.348	283.357	0.998	899.348
303.503	369.230	80.018	19.977	100.572	16.320	285.331	0.978	899.325
304.003	369.751	80.019	19.977	100.568	16.285	287.859	0.984	899.315
304.503	370.237	80.017	19.976	100.564	16.255	290.021	1.009	899.344
305.002	370.747	80.019	19.978	100.564	16.223	292.319	0.997	899.340
305.503	371.237	80.018	19.977	100.561	16.192	294.579	1.000	899.335
306.003	371.740	80.017	19.976	100.558	16.158	296.986	0.993	899.332
306.503	372.244	80.020	19.975	100.561	16.113	300.311	1.006	899.338
307.003	372.729	80.018	19.975	100.567	16.074	303.313	0.989	899.320
307.503	373.222	80.017	19.975	100.577	16.036	306.284	0.978	899.308
308.002	373.745	80.017	19.976	100.592	15.991	309.773	1.016	899.351
308.502	374.232	80.016	19.976	100.609	15.956	312.603	1.010	899.336
309.002	374.734	80.016	19.977	100.629	15.919	315.550	0.988	899.316
309.503	375.218	80.017	19.977	100.643	15.879	318.743	0.985	899.322
310.003	375.689	80.015	19.976	100.652	15.846	321.227	0.955	899.361
310.503	376.183	80.018	19.978	100.656	15.811	323.853	0.965	899.333
311.003	376.682	80.018	19.977	100.665	15.782	326.137	0.994	899.339
311.502	377.198	80.016	19.977	100.669	15.758	327.974	1.015	899.337
312.002	377.653	80.018	19.977	100.675	15.734	329.770	0.970	899.320
312.503	378.173	80.017	19.976	100.682	15.719	330.809	0.976	899.369
313.003	378.691	80.016	19.977	100.695	15.713	331.214	1.038	899.321
313.502	379.148	80.015	19.977	100.700	15.712	331.237	0.975	899.333
314.002	379.665	80.013	19.975	100.697	15.716	330.710	0.974	899.345
314.502	380.161	80.014	19.976	100.683	15.726	329.875	1.013	899.326
315.002	380.674	80.015	19.976	100.669	15.721	330.130	1.008	899.326
315.503	381.172	80.014	19.975	100.649	15.711	330.654	1.010	899.344
316.003	381.662	80.014	19.976	100.626	15.700	331.364	0.988	899.364
316.503	382.162	80.014	19.976	100.608	15.689	332.135	0.990	899.347
317.003	382.640	80.016	19.976	100.593	15.681	332.743	0.977	899.337
317.503	383.142	80.018	19.977	100.588	15.663	333.969	0.980	899.363
318.003	383.651	80.017	19.976	100.584	15.648	335.069	1.011	899.359
318.503	384.157	80.015	19.976	100.577	15.635	336.205	1.015	899.351
319.003	384.637	80.013	19.977	100.571	15.623	337.225	0.987	899.351
319.503	385.157	80.012	19.977	100.571	15.617	337.756	1.000	899.381
320.003	385.641	80.013	19.977	100.569	15.615	337.996	1.004	899.318
320.503	386.176	80.014	19.977	100.573	15.617	337.852	1.018	899.322
321.003	386.605	80.012	19.977	100.588	15.600	339.072	0.964	899.339
321.503	387.143	80.014	19.977	100.613	15.571	341.149	0.968	899.341
322.002	387.640	80.013	19.977	100.628	15.543	343.203	1.036	899.363
322.502	388.146	80.016	19.977	100.630	15.530	344.140	1.003	899.385
323.002	388.636	80.018	19.977	100.645	15.541	343.354	0.996	899.343
323.502	389.154	80.016	19.977	100.653	15.565	341.565	1.007	899.414
324.003	389.651	80.015	19.978	100.653	15.595	339.346	1.014	899.359
324.503	390.150	80.016	19.978	100.661	15.635	336.316	0.997	899.335
325.003	390.661	80.016	19.978	100.673	15.659	334.290	1.011	899.374
325.503	391.144	80.018	19.978	100.663	15.678	332.602	0.994	899.359
326.003	391.646	80.016	19.977	100.646	15.684	332.033	0.985	899.359
326.503	392.148	80.016	19.976	100.633	15.679	332.311	1.003	899.397
327.003	392.647	80.018	19.977	100.623	15.675	332.644	1.001	899.336
327.503	393.140	80.016	19.976	100.614	15.673	332.830	0.992	899.361
328.003	393.643	80.017	19.975	100.615	15.681	332.302	0.996	899.356
328.503	394.161	80.020	19.977	100.628	15.691	331.525	1.022	899.385
329.003	394.650	80.019	19.976	100.639	15.713	330.022	1.008	899.370
329.503	395.147	80.017	19.977	100.635	15.727	328.366	0.985	899.357
330.003	395.622	80.016	19.977	100.631	15.731	327.593	0.972	899.381
330.503	396.133	80.015	19.976	100.630	15.720	328.027	0.986	899.354
331.003	396.616	80.016	19.975	100.626	15.720	327.980	0.993	899.374
331.503	397.135	80.014	19.977	100.625	15.739	326.700	1.003	899.340
332.003	397.643	80.016	19.976	100.649	15.767	324.533	1.028	899.374
332.502	398.150	80.017	19.977	100.677	15.805	322.131	1.014	899.361
333.003	398.684	80.015	19.978	100.698	15.837	320.138	1.041	899.386
333.503	399.151	80.016	19.977	100.714	15.850	319.393	1.001	899.384
334.003	399.662	80.016	19.977	100.718	15.854	319.262	0.978	899.351
334.503	400.179	80.014	19.976	100.704	15.865	318.528	1.028	899.389
335.003	400.653	80.016	19.976	100.689	15.836	320.956	0.991	899.393
335.503	401.176	80.016	19.977	100.688	15.754	327.541	0.997	899.383
336.003	401.655	80.017	19.976	100.691	15.685	333.445	1.002	899.384
336.503	402.162	80.017	19.975	100.696	15.682	334.576	0.985	899.382
337.004	402.653	80.015	19.976	100.758	15.743	330.694	0.998	899.363
337.504	403.180	80.015	19.976	100.814	15.821	325.443	1.020	899.380
338.003	403.715	80.017	19.976	100.838	15.887	320.867	1.062	899.402
338.503	404.165	80.014	19.977	100.842	15.932	317.625	0.984	899.406
339.003	404.669	80.017	19.977	100.842	15.977	314.173	0.954	899.372
339.503	405.167	80.015	19.976	100.793	16.031	309.921	1.002	899.364
340.003	405.660	80.016	19.976	100.750	16.100	304.731	0.992	899.383
340.502	406.181	80.018	19.976	100.732	16.179	298.895	1.014	899.353
341.002	406.689	80.016	19.977	100.726	16.269	292.333	1.028	899.390
341.503	407.180	80.017	19.977	100.722	16.362	285.455	0.998	899.382
342.003	407.682	80.015	19.976	100.704	16.445	279.205	0.994	899.379
342.503	408.173	80.013	19.978	100.673	16.518	273.673	0.994	899.373
343.003	408.699	80.015	19.977	100.616	16.583	268.670	1.017	899.383
343.503	409.224	80.015	19.977	100.531	16.646	263.815	1.051	899.371
344.003	409.679	80.015	19.978	100.446	16.711	258.829	0.979	899.370
344.503	410.186	80.017	19.977	100.381	16.780	253.550	0.961	899.390
345.003	410.711	80.017	19.977	100.338	16.847	248.570	1.032	899.350
345.503	411.218	80.016	19.976	100.329	16.915	243.527	1.031	899.377
346.003	411.705	80.015	19.976	100.351	16.983	238.497	0.995	899.392
346.503	412.221	80.013	19.978	100.379	17.048	233.588	1.004	899.372
347.003	412.752	80.013	19.977	100.393	17.126	227.715	1.047	899.391
347.503	413.240	80.015	19.977	100.392	17.203	221.799	1.019	899.394
348.003	413.793	80.015	19.977	100.380	17.282	215.722	1.041	899.367
348.503	414.268	80.014	19.976	100.374	17.367	209.113	1.028	899.414
349.003	414.756	80.014	19.976	100.376	17.456	202.159	0.963	899.397
349.503	415.292	80.014	19.978	100.388	17.553	194.592	1.025	899.412
350.003	415.817	80.019	19.978	100.409	17.644	187.466	1.062	899.388
350.503	416.334	80.018	19.978	100.425	17.740	179.933	1.042	899.383
351.003	416.826	80.017	19.977	100.440	17.836	172.547	1.008	899.399
351.503	417.334	80.016	19.976	100.453	17.932	165.088	1.000	899.435
352.003	417.828	80.015	19.976	100.460	18.025	157.846	1.001	899.402
352.504	418.348	80.016	19.976	100.459	18.113	150.987	1.013	899.418
353.004	418.870	80.016	19.977	100.458	18.205	143.815	1.043	899.383
353.503	419.371	80.016	19.978	100.458	18.290	137.264	1.024	899.397
354.003	419.887	80.016	19.978	100.463	18.373	130.806	1.017	899.414
354.503	420.392	80.016	19.977	100.467	18.452	124.571	1.021	899.408
355.003	420.895	80.016	19.978	100.483	18.528	118.724	1.008	899.402
355.503	421.399	80.019	19.978	100.509	18.605	112.753	1.007	899.413
356.003	421.923	80.017	19.978	100.535	18.675	107.352	1.029	899.420
356.502	422.411	80.018	19.978	100.558	18.744	101.964	1.012	899.409
357.002	422.944	80.016	19.977	100.588	18.812	96.673	1.021	899.406
357.502	423.460	80.018	19.977	100.611	18.878	91.615	1.049	899.413
358.003	423.914	80.017	19.978	100.635	18.937	87.054	0.969	899.397
358.504	424.449	80.018	19.977	100.653	18.998	82.354	0.988	899.428
359.003	424.963	80.017	19.978	100.674	19.055	77.976	1.049	899.405
359.503	425.462	80.020	19.978	100.695	19.108	73.904	1.013	899.435
360.004	425.948	80.018	19.977	100.712	19.159	70.087	0.985	899.413
360.504	426.451	80.018	19.977	100.729	19.208	66.319	0.990	899.416
361.003	426.977	80.021	19.978	100.747	19.263	62.217	1.028	899.391
361.503	427.452	80.019	19.977	100.765	19.307	58.916	1.000	899.413
362.003	427.958	80.018	19.978	100.779	19.351	55.625	0.982	899.451
362.503	428.476	80.016	19.976	100.792	19.391	52.697	1.025	899.410
363.003	428.963	80.015	19.976	100.804	19.435	49.390	1.005	899.425
363.503	429.462	80.020	19.977	100.816	19.473	46.617	0.985	899.391
364.003	429.971	80.018	19.976	100.827	19.510	43.894	1.007	899.410
364.503	430.482	80.018	19.976	100.836	19.545	41.298	1.021	899.426
365.002	430.968	80.020	19.976	100.846	19.579	38.842	0.998	899.419
365.502	431.465	80.018	19.976	100.852	19.612	36.426	0.984	899.412
366.002	431.957	80.020	19.976	100.857	19.643	34.265	0.989	899.421
366.503	432.444	80.021	19.977	100.860	19.674	32.090	0.978	899.399
367.003	432.970	80.020	19.975	100.860	19.698	30.380	1.013	899.430
367.503	433.451	80.019	19.975	100.860	19.726	28.479	1.007	899.421
368.003	433.976	80.018	19.975	100.862	19.751	26.740	1.005	899.414
368.503	434.466	80.016	19.975	100.860	19.774	25.201	1.014	899.454
369.004	434.966	80.017	19.975	100.854	19.800	23.323	0.990	899.423
369.504	435.460	80.013	19.974	100.850	19.822	21.790	0.995	899.425
370.003	435.955	80.015	19.974	100.845	19.843	20.342	0.989	899.412
370.503	436.441	80.016	19.976	100.838	19.856	19.526	0.981	899.400
371.003	436.964	80.015	19.975	100.830	19.875	18.176	1.010	899.447
371.503	437.472	80.019	19.975	100.825	19.894	16.844	1.031	899.409
372.003	437.981	80.020	19.975	100.819	19.911	15.620	1.016	899.417
372.503	438.489	80.017	19.974	100.811	19.931	14.239	1.017	899.453
373.004	439.014	80.016	19.975	100.802	19.942	13.475	1.034	899.466
373.503	439.477	80.016	19.974	100.790	19.959	12.265	0.988	899.455
374.003	439.993	80.017	19.974	100.780	19.974	11.289	0.979	899.416
374.504	440.498	80.019	19.976	100.766	19.987	10.440	1.020	899.452
375.004	440.993	80.017	19.975	100.752	19.998	9.717	1.000	899.432
375.503	441.482	80.016	19.975	100.739	20.011	8.900	0.985	899.444
376.003	442.002	80.019	19.976	100.730	20.024	8.061	1.010	899.457
376.503	442.493	80.017	19.975	100.719	20.035	7.409	1.010	899.497
377.003	442.973	80.018	19.975	100.710	20.043	6.979	0.971	899.466
377.503	443.491	80.018	19.976	100.702	20.050	6.600	0.999	899.464
378.003	443.984	80.019	19.976	100.691	20.062	5.861	1.011	899.443
378.503	444.461	80.018	19.976	100.683	20.070	5.346	0.970	899.500
379.003	444.984	80.019	19.976	100.675	20.073	5.255	1.000	899.470
379.503	445.468	80.021	19.976	100.667	20.084	4.518	1.007	899.485
380.003	446.001	80.022	19.977	100.663	20.093	3.849	1.017	899.492
380.503	446.479	80.021	19.977	100.656	20.095	3.703	1.011	899.500
381.003	446.975	80.022	19.977	100.649	20.107	2.911	0.974	899.496
381.503	447.478	80.021	19.977	100.641	20.112	2.655	0.998	899.516
382.004	447.963	80.021	19.976	100.630	20.116	2.390	0.987	899.516
382.503	448.472	80.021	19.975	100.617	20.124	1.949	0.995	899.498
383.003	448.973	80.020	19.976	100.607	20.131	1.624	1.011	899.480
383.504	449.478	80.017	19.976	100.595	20.132	1.560	1.004	899.514
384.004	449.972	80.017	19.976	100.581	20.140	0.960	0.998	899.475
384.504	450.467	80.017	19.976	100.569	20.144	0.708	0.990	899.491
385.004	450.962	80.018	19.975	100.557	20.153	0.087	0.991	899.510
385.504	451.464	80.018	19.976	100.549	20.155	-0.061	0.997	899.521
386.004	451.963	80.018	19.976	100.541	20.158	-0.256	1.001	899.531
386.503	452.478	80.020	19.976	100.533	20.164	-0.535	1.014	899.521
387.003	452.985	80.020	19.977	100.527	20.165	-0.484	1.021	899.519
387.504	453.459	80.018	19.976	100.527	20.168	-0.612	0.981	899.534
388.004	453.941	80.020	19.975	100.525	20.175	-1.030	0.957	899.506
388.504	454.443	80.020	19.977	100.519	20.176	-1.065	0.983	899.495
389.004	454.953	80.019	19.976	100.513	20.177	-1.057	1.012	899.473
389.504	455.425	80.018	19.977	100.506	20.178	-1.055	0.982	899.530
390.004	455.938	80.018	19.977	100.493	20.181	-1.131	0.984	899.511
390.504	456.443	80.021	19.977	100.476	20.181	-1.150	1.020	899.520
391.003	456.965	80.020	19.977	100.477	20.183	-1.218	1.027	899.515
391.504	457.447	80.018	19.977	100.480	20.186	-1.419	1.002	899.472
392.005	457.928	80.019	19.976	100.479	20.185	-1.393	0.963	899.557
392.504	458.423	80.018	19.976	100.478	20.185	-1.401	0.977	899.523
393.003	458.934	80.021	19.976	100.476	20.188	-1.592	1.007	899.543
393.503	459.428	80.022	19.975	100.463	20.190	-1.637	1.005	899.542
394.003	459.943	80.022	19.976	100.452	20.189	-1.466	1.009	899.515
394.503	460.464	80.021	19.976	100.447	20.192	-1.632	1.036	899.556
395.004	460.927	80.019	19.976	100.440	20.195	-1.831	0.983	899.545
395.504	461.446	80.018	19.976	100.438	20.195	-1.782	0.982	899.549
396.004	461.937	80.021	19.976	100.433	20.196	-1.867	1.011	899.529
396.504	462.448	80.019	19.977	100.426	20.196	-1.880	1.003	899.538
397.003	462.929	80.018	19.977	100.415	20.194	-1.668	0.991	899.520
397.504	463.457	80.020	19.976	100.409	20.196	-1.795	1.008	899.566
398.004	463.963	80.019	19.977	100.406	20.197	-1.809	1.034	899.542
398.503	464.449	80.020	19.976	100.404	20.196	-1.645	0.992	899.563
399.003	464.947	80.022	19.975	100.406	20.195	-1.542	0.984	899.536
399.503	465.445	80.021	19.976	100.409	20.198	-1.789	0.997	899.544
400.003	465.952	80.021	19.976	100.407	20.195	-1.451	1.005	899.568
400.504	466.435	80.020	19.976	100.402	20.193	-1.324	0.989	899.530
401.004	466.941	80.019	19.976	100.394	20.195	-1.366	0.989	899.581
401.503	467.417	80.020	19.975	100.389	20.197	-1.525	0.983	899.605
402.003	467.932	80.019	19.976	100.385	20.194	-1.267	0.990	899.587
402.504	468.438	80.019	19.976	100.381	20.197	-1.422	1.019	899.574
403.004	468.953	80.020	19.975	100.383	20.195	-1.330	1.021	899.524
403.504	469.415	80.019	19.976	100.386	20.196	-1.447	0.978	899.564
404.003	469.915	80.020	19.976	100.382	20.196	-1.406	0.963	899.600
404.503	470.427	80.021	19.976	100.379	20.200	-1.798	1.012	899.561
405.003	470.926	80.020	19.977	100.376	20.198	-1.677	1.010	899.598
405.504	471.407	80.020	19.978	100.371	20.195	-1.437	0.980	899.580
406.003	471.928	80.020	19.977	100.366	20.196	-1.573	1.003	899.558
406.503	472.412	80.023	19.977	100.364	20.200	-1.879	1.006	899.607
407.003	472.898	80.022	19.976	100.362	20.201	-1.945	0.970	899.583
407.503	473.403	80.020	19.977	100.361	20.204	-2.141	0.991	899.621
408.003	473.910	80.019	19.977	100.355	20.202	-2.024	1.012	899.586
408.503	474.403	80.020	19.976	100.353	20.199	-1.751	1.001	899.547
409.003	474.903	80.019	19.977	100.350	20.197	-1.564	0.993	899.610
409.503	475.420	80.021	19.977	100.346	20.194	-1.184	1.015	899.580
410.004	475.884	80.020	19.976	100.347	20.199	-1.503	0.981	899.609
410.504	476.387	80.020	19.976	100.351	20.201	-1.546	0.968	899.592
411.004	476.883	80.021	19.978	100.352	20.199	-1.317	0.999	899.584
411.504	477.409	80.019	19.977	100.354	20.200	-1.402	1.023	899.640
412.003	477.883	80.023	19.977	100.359	20.201	-1.506	1.000	899.609
412.504	478.383	80.023	19.976	100.359	20.201	-1.577	0.974	899.635
413.004	478.927	80.020	19.976	100.359	20.200	-1.630	1.044	899.595
413.504	479.388	80.020	19.977	100.361	20.200	-1.580	1.005	899.601
414.004	479.901	80.020	19.976	100.362	20.201	-1.642	0.974	899.626
414.504	480.408	80.019	19.976	100.358	20.201	-1.580	1.020	899.630
415.004	480.919	80.022	19.976	100.362	20.203	-1.745	1.018	899.616
415.503	481.373	80.021	19.975	100.364	20.203	-1.772	0.965	899.619
416.004	481.901	80.020	19.976	100.358	20.201	-1.595	0.981	899.645
416.504	482.394	80.017	19.977	100.354	20.202	-1.696	1.022	899.629
417.003	482.908	80.017	19.977	100.346	20.200	-1.484	1.007	899.656
417.504	483.404	80.017	19.977	100.334	20.200	-1.520	1.010	899.664
418.003	483.862	80.019	19.976	100.327	20.199	-1.436	0.954	899.642
418.504	484.393	80.019	19.976	100.326	20.200	-1.447	0.989	899.645
419.004	484.852	80.020	19.976	100.328	20.200	-1.432	0.989	899.645
419.504	485.378	80.021	19.976	100.336	20.201	-1.505	0.984	899.590
420.004	485.876	80.022	19.975	100.341	20.200	-1.383	1.024	899.475
420.504	486.361	80.023	19.976	100.345	20.198	-1.310	0.985	899.651
421.003	486.867	80.021	19.975	100.343	20.202	-1.595	0.992	899.623
421.503	487.348	80.020	19.975	100.340	20.203	-1.715	0.987	899.635
422.003	487.849	80.019	19.977	100.335	20.199	-1.454	0.982	899.573
422.504	488.380	80.018	19.976	100.336	20.203	-1.752	1.031	899.661
423.003	488.881	80.020	19.976	100.334	20.202	-1.757	1.032	899.635
423.503	489.371	80.020	19.976	100.338	20.203	-1.742	0.991	899.672
424.003	489.901	80.018	19.976	100.338	20.202	-1.647	1.020	899.658
424.503	490.348	80.020	19.976	100.339	20.202	-1.642	0.977	899.676
425.003	490.872	80.019	19.977	100.336	20.203	-1.677	0.970	899.649
425.504	491.401	80.019	19.977	100.336	20.203	-1.669	1.051	899.633
426.004	491.874	80.021	19.977	100.331	20.202	-1.566	1.003	899.645
426.504	492.366	80.021	19.977	100.333	20.202	-1.611	0.966	899.668
427.003	492.879	80.021	19.976	100.332	20.198	-1.323	1.004	899.668
427.504	493.341	80.021	19.977	100.328	20.200	-1.397	0.975	899.633
428.004	493.865	80.021	19.976	100.330	20.199	-1.354	0.986	899.651
428.504	494.401	80.021	19.976	100.335	20.197	-1.254	1.059	899.664
429.005	494.866	80.020	19.975	100.336	20.201	-1.536	1.000	899.646
429.505	495.342	80.019	19.975	100.341	20.200	-1.426	0.942	899.689
430.004	495.872	80.021	19.976	100.343	20.201	-1.546	1.007	899.665
430.504	496.383	80.019	19.975	100.339	20.204	-1.746	1.041	899.665
431.004	496.870	80.019	19.976	100.337	20.203	-1.653	0.999	899.673
431.503	497.357	80.022	19.976	100.334	20.205	-1.745	0.974	899.708
432.004	497.870	80.019	19.975	100.335	20.204	-1.639	0.999	899.681
432.504	498.335	80.017	19.976	100.337	20.204	-1.675	0.979	899.685
433.003	498.850	80.017	19.976	100.334	20.204	-1.741	0.981	899.694
433.503	499.329	80.018	19.976	100.331	20.204	-1.679	0.993	899.679
434.004	499.849	80.017	19.976	100.332	20.205	-1.694	0.998	899.659
434.504	500.349	80.017	19.976	100.329	20.207	-1.931	1.020	899.675
435.004	500.812	80.016	19.975	100.327	20.206	-1.816	0.965	899.682
435.503	501.312	80.018	19.976	100.335	20.201	-1.386	0.964	899.642
436.003	501.820	80.016	19.976	100.335	20.204	-1.602	1.008	899.658
436.504	502.313	80.019	19.975	100.333	20.204	-1.621	1.000	899.679
437.005	502.821	80.022	19.976	100.333	20.203	-1.567	1.000	899.679
437.505	503.322	80.018	19.975	100.335	20.202	-1.480	1.010	899.678
438.004	503.833	80.017	19.976	100.330	20.204	-1.582	1.013	899.661
438.504	504.294	80.016	19.977	100.332	20.204	-1.673	0.972	899.703
439.004	504.814	80.017	19.977	100.328	20.204	-1.689	0.981	899.708
439.504	505.311	80.019	19.977	100.326	20.203	-1.623	1.018	899.693
440.004	505.787	80.018	19.976	100.327	20.204	-1.725	0.973	899.697
440.504	506.289	80.016	19.976	100.329	20.205	-1.855	0.977	899.673
441.004	506.799	80.018	19.977	100.326	20.205	-1.856	1.012	899.696
441.504	507.274	80.018	19.977	100.328	20.205	-1.903	0.986	899.700
442.004	507.761	80.020	19.975	100.331	20.205	-1.845	0.962	899.689
442.504	508.261	80.019	19.976	100.325	20.206	-1.900	0.986	899.702
443.005	508.780	80.015	19.976	100.319	20.204	-1.708	1.019	899.694
443.505	509.298	80.017	19.975	100.318	20.207	-1.906	1.037	899.724
444.004	509.811	80.019	19.976	100.322	20.204	-1.639	1.032	899.682
444.504	510.310	80.019	19.976	100.322	20.206	-1.837	1.014	899.716
445.003	510.819	80.020	19.976	100.323	20.204	-1.731	1.008	899.710
445.504	511.281	80.019	19.976	100.325	20.209	-2.087	0.970	899.710
446.004	511.806	80.020	19.976	100.325	20.203	-1.719	0.986	899.710
446.504	512.302	80.023	19.977	100.324	20.204	-1.830	1.020	899.747
447.005	512.818	80.021	19.977	100.327	20.207	-2.100	1.012	899.743
447.504	513.306	80.024	19.976	100.331	20.204	-1.838	1.005	899.727
448.004	513.804	80.023	19.976	100.336	20.204	-1.750	0.987	899.738
448.503	514.294	80.022	19.976	100.338	20.202	-1.487	0.988	899.746
449.004	514.791	80.022	19.975	100.337	20.204	-1.649	0.986	899.715
449.504	515.308	80.022	19.975	100.332	20.202	-1.417	1.014	899.741
450.004	515.768	80.024	19.975	100.331	20.204	-1.548	0.978	899.729
450.504	516.318	80.021	19.975	100.328	20.203	-1.547	1.011	899.741
451.004	516.779	80.021	19.975	100.324	20.204	-1.690	1.010	899.753
451.504	517.318	80.023	19.975	100.322	20.202	-1.600	0.999	899.760
452.004	517.785	80.024	19.975	100.326	20.204	-1.750	1.007	899.775
452.504	518.291	80.022	19.975	100.328	20.205	-1.831	0.973	899.758
453.004	518.804	80.025	19.975	100.333	20.208	-1.940	1.019	899.757
453.504	519.287	80.026	19.976	100.339	20.205	-1.712	0.997	899.747
454.004	519.778	80.022	19.976	100.343	20.209	-1.964	0.974	899.765
454.505	520.299	80.022	19.976	100.342	20.209	-1.972	1.011	899.755
455.005	520.791	80.021	19.976	100.337	20.208	-1.939	1.013	899.800
455.505	521.293	80.023	19.977	100.330	20.206	-1.873	0.995	899.799
456.004	521.793	80.024	19.976	100.323	20.207	-1.984	1.003	899.780
456.504	522.291	80.021	19.975	100.318	20.207	-2.012	0.998	899.811
457.004	522.793	80.021	19.976	100.314	20.206	-1.858	0.999	899.829
457.505	523.286	80.020	19.976	100.319	20.208	-1.968	0.995	899.801
458.005	523.771	80.020	19.976	100.325	20.207	-1.900	0.977	899.816
458.505	524.273	80.023	19.975	100.333	20.206	-1.777	0.987	899.771
459.004	524.781	80.023	19.976	100.333	20.207	-1.730	1.011	899.786
459.504	525.283	80.022	19.977	100.334	20.206	-1.710	1.010	899.787
460.004	525.780	80.021	19.975	100.327	20.204	-1.545	0.999	899.803
460.505	526.253	80.021	19.976	100.322	20.203	-1.467	0.969	899.803
461.005	526.756	80.022	19.976	100.318	20.207	-1.790	0.976	899.817
461.504	527.260	80.020	19.976	100.320	20.209	-1.954	1.007	899.837
462.005	527.787	80.022	19.975	100.322	20.207	-1.805	1.031	899.817
462.505	528.274	80.022	19.975	100.325	20.209	-1.964	1.014	899.821
463.005	528.761	80.022	19.976	100.329	20.208	-1.931	0.974	899.798
463.505	529.304	80.024	19.976	100.334	20.209	-2.023	1.031	899.823
464.005	529.778	80.023	19.976	100.332	20.206	-1.830	1.018	899.864
464.504	530.293	80.023	19.975	100.330	20.208	-1.912	0.989	899.830
465.004	530.745	80.023	19.975	100.327	20.208	-1.874	0.967	899.840
465.504	531.266	80.022	19.975	100.321	20.211	-2.117	0.973	899.839
466.004	531.787	80.021	19.976	100.317	20.210	-2.054	1.041	899.834
466.504	532.285	80.022	19.976	100.315	20.212	-2.115	1.019	899.835
467.004	532.798	80.021	19.976	100.317	20.210	-1.975	1.011	899.822
467.505	533.264	80.020	19.976	100.318	20.208	-1.837	0.978	899.866
468.005	533.760	80.022	19.975	100.318	20.210	-1.924	0.962	899.864
468.505	534.267	80.019	19.976	100.316	20.209	-1.774	1.003	899.868
469.004	534.777	80.019	19.976	100.319	20.208	-1.709	1.017	899.865
469.504	535.266	80.021	19.976	100.322	20.210	-1.958	1.000	899.846
470.004	535.756	80.020	19.976	100.323	20.207	-1.772	0.980	899.871
470.504	536.232	80.019	19.975	100.325	20.208	-1.867	0.965	899.822
471.005	536.758	80.018	19.975	100.328	20.207	-1.851	1.002	899.871
471.504	537.254	80.020	19.974	100.327	20.207	-1.910	1.022	899.873
472.004	537.772	80.022	19.976	100.321	20.205	-1.767	1.013	899.898
472.505	538.280	80.020	19.975	100.321	20.206	-1.867	1.026	899.882
473.005	538.757	80.022	19.975	100.322	20.206	-1.882	0.986	899.880
473.505	539.262	80.022	19.975	100.321	20.210	-2.091	0.982	899.868
474.005	539.773	80.021	19.974	100.316	20.206	-1.817	1.016	899.905
474.505	540.273	80.023	19.975	100.315	20.209	-1.989	1.011	899.909
475.005	540.749	80.023	19.975	100.314	20.208	-1.857	0.976	899.906
475.505	541.261	80.022	19.975	100.308	20.207	-1.714	0.988	899.893
476.005	541.745	80.022	19.975	100.307	20.206	-1.664	0.996	899.930
476.505	542.251	80.020	19.975	100.312	20.203	-1.455	0.990	899.929
477.005	542.733	80.022	19.974	100.314	20.206	-1.653	0.989	899.903
477.505	543.242	80.025	19.975	100.317	20.204	-1.570	0.991	899.923
478.005	543.727	80.023	19.974	100.323	20.209	-1.872	0.994	899.923
478.505	544.240	80.022	19.975	100.326	0.000	0.000	0.998	899.901
479.005	544.738	80.022	19.975	100.326	0.000	0.000	1.011	899.940
479.505	545.244	80.019	19.974	100.329	0.000	0.000	1.005	899.918
480.004	545.726	80.020	19.976	100.330	0.000	0.000	0.989	899.933
480.504	546.244	80.021	19.975	100.330	0.000	0.000	1.000	899.930
481.005	546.736	80.019	19.974	100.326	0.000	0.000	1.009	899.951
481.505	547.241	80.019	19.976	100.324	0.000	0.000	0.996	899.953
482.005	547.710	80.020	19.975	100.320	0.000	0.000	0.975	899.950
482.504	548.228	80.019	19.975	100.317	0.000	0.000	0.987	899.909
483.004	548.755	80.019	19.976	100.313	0.000	0.000	1.045	899.955
483.505	549.259	80.019	19.976	100.314	0.000	0.000	1.031	899.968
484.005	549.714	80.019	19.976	100.313	0.000	0.000	0.958	899.957
484.505	550.271	80.019	19.976	100.317	0.000	0.000	1.012	899.953
485.004	550.745	80.017	19.975	100.320	0.000	0.000	1.033	899.983
485.504	551.233	80.020	19.976	100.317	0.000	0.000	0.962	900.007
486.005	551.724	80.020	19.976	100.314	0.000	0.000	0.978	899.960
486.505	552.219	80.021	19.975	100.312	0.000	0.000	0.987	899.937
487.005	552.710	80.021	19.975	100.307	0.000	0.000	0.986	899.965
487.505	553.248	80.020	19.975	100.302	0.000	0.000	1.029	899.995
488.004	553.696	80.022	19.974	100.302	0.000	0.000	0.986	899.993
